Channel              :,CH1
Frequency            :,1.010kHz
Period               :,0.990ms
PK-PK                :,328.1mV
Probe attenuation    :,1X
Voltage per ADC value:,0.244141mV
Time interval        :,1.00000us

index,CH1_Voltage(mV)
1,-78.125000
2,-78.125000
3,-78.125000
4,-74.218750
5,-74.218750
6,-74.218750
7,-74.218750
8,-70.312500
9,-70.312500
10,-70.312500
11,-70.312500
12,-70.312500
13,-66.406250
14,-66.406250
15,-66.406250
16,-66.406250
17,-62.500000
18,-62.500000
19,-58.593750
20,-58.593750
21,-58.593750
22,-58.593750
23,-54.687500
24,-54.687500
25,-54.687500
26,-54.687500
27,-50.781250
28,-50.781250
29,-50.781250
30,-50.781250
31,-46.875000
32,-46.875000
33,-46.875000
34,-42.968750
35,-42.968750
36,-42.968750
37,-39.062500
38,-39.062500
39,-39.062500
40,-39.062500
41,-35.156250
42,-35.156250
43,-35.156250
44,-35.156250
45,-35.156250
46,-31.250000
47,-31.250000
48,-31.250000
49,-27.343750
50,-27.343750
51,-27.343750
52,-27.343750
53,-23.437500
54,-23.437500
55,-23.437500
56,-19.531250
57,-19.531250
58,-19.531250
59,-15.625000
60,-15.625000
61,-15.625000
62,-15.625000
63,-15.625000
64,-11.718750
65,-11.718750
66,-11.718750
67,-7.812500
68,-7.812500
69,-7.812500
70,-7.812500
71,-3.906250
72,-3.906250
73,-3.906250
74,-3.906250
75,0.000000
76,0.000000
77,0.000000
78,0.000000
79,3.906250
80,3.906250
81,3.906250
82,3.906250
83,7.812500
84,7.812500
85,7.812500
86,11.718750
87,11.718750
88,11.718750
89,11.718750
90,15.625000
91,15.625000
92,15.625000
93,15.625000
94,19.531250
95,19.531250
96,19.531250
97,23.437500
98,23.437500
99,23.437500
100,23.437500
101,23.437500
102,27.343750
103,27.343750
104,27.343750
105,27.343750
106,27.343750
107,31.250000
108,31.250000
109,31.250000
110,35.156250
111,35.156250
112,35.156250
113,35.156250
114,39.062500
115,39.062500
116,39.062500
117,39.062500
118,42.968750
119,42.968750
120,42.968750
121,42.968750
122,46.875000
123,46.875000
124,46.875000
125,46.875000
126,50.781250
127,50.781250
128,50.781250
129,50.781250
130,50.781250
131,54.687500
132,54.687500
133,54.687500
134,54.687500
135,58.593750
136,58.593750
137,58.593750
138,62.500000
139,62.500000
140,62.500000
141,62.500000
142,62.500000
143,62.500000
144,62.500000
145,66.406250
146,66.406250
147,66.406250
148,70.312500
149,70.312500
150,70.312500
151,70.312500
152,70.312500
153,74.218750
154,74.218750
155,74.218750
156,74.218750
157,74.218750
158,74.218750
159,78.125000
160,78.125000
161,78.125000
162,78.125000
163,82.031250
164,82.031250
165,82.031250
166,82.031250
167,85.937500
168,85.937500
169,85.937500
170,85.937500
171,85.937500
172,85.937500
173,89.843750
174,85.937500
175,89.843750
176,89.843750
177,89.843750
178,93.750000
179,93.750000
180,93.750000
181,93.750000
182,93.750000
183,93.750000
184,97.656250
185,97.656250
186,97.656250
187,97.656250
188,97.656250
189,101.562500
190,97.656250
191,101.562500
192,101.562500
193,101.562500
194,101.562500
195,101.562500
196,101.562500
197,105.468750
198,105.468750
199,105.468750
200,105.468750
201,105.468750
202,105.468750
203,109.375000
204,109.375000
205,109.375000
206,109.375000
207,109.375000
208,109.375000
209,109.375000
210,109.375000
211,113.281250
212,113.281250
213,113.281250
214,113.281250
215,113.281250
216,113.281250
217,113.281250
218,117.187500
219,117.187500
220,117.187500
221,117.187500
222,117.187500
223,117.187500
224,117.187500
225,117.187500
226,117.187500
227,121.093750
228,121.093750
229,121.093750
230,121.093750
231,121.093750
232,121.093750
233,121.093750
234,121.093750
235,121.093750
236,125.000000
237,125.000000
238,125.000000
239,125.000000
240,125.000000
241,125.000000
242,125.000000
243,125.000000
244,125.000000
245,128.906250
246,128.906250
247,128.906250
248,128.906250
249,128.906250
250,128.906250
251,128.906250
252,128.906250
253,128.906250
254,128.906250
255,128.906250
256,128.906250
257,132.812500
258,132.812500
259,132.812500
260,132.812500
261,132.812500
262,132.812500
263,132.812500
264,132.812500
265,132.812500
266,132.812500
267,132.812500
268,136.718750
269,136.718750
270,132.812500
271,136.718750
272,136.718750
273,136.718750
274,136.718750
275,136.718750
276,136.718750
277,136.718750
278,136.718750
279,136.718750
280,136.718750
281,136.718750
282,136.718750
283,136.718750
284,136.718750
285,140.625000
286,136.718750
287,140.625000
288,140.625000
289,140.625000
290,140.625000
291,140.625000
292,136.718750
293,140.625000
294,140.625000
295,140.625000
296,140.625000
297,140.625000
298,140.625000
299,140.625000
300,140.625000
301,140.625000
302,140.625000
303,140.625000
304,140.625000
305,140.625000
306,140.625000
307,140.625000
308,140.625000
309,140.625000
310,140.625000
311,140.625000
312,140.625000
313,140.625000
314,140.625000
315,140.625000
316,140.625000
317,140.625000
318,140.625000
319,140.625000
320,140.625000
321,140.625000
322,140.625000
323,140.625000
324,140.625000
325,140.625000
326,140.625000
327,140.625000
328,140.625000
329,140.625000
330,140.625000
331,140.625000
332,140.625000
333,140.625000
334,140.625000
335,140.625000
336,140.625000
337,140.625000
338,140.625000
339,140.625000
340,140.625000
341,136.718750
342,140.625000
343,140.625000
344,140.625000
345,140.625000
346,140.625000
347,140.625000
348,140.625000
349,140.625000
350,136.718750
351,136.718750
352,136.718750
353,140.625000
354,140.625000
355,140.625000
356,136.718750
357,136.718750
358,136.718750
359,136.718750
360,136.718750
361,136.718750
362,136.718750
363,136.718750
364,136.718750
365,136.718750
366,136.718750
367,136.718750
368,136.718750
369,136.718750
370,136.718750
371,132.812500
372,132.812500
373,132.812500
374,132.812500
375,132.812500
376,132.812500
377,132.812500
378,132.812500
379,132.812500
380,132.812500
381,132.812500
382,132.812500
383,132.812500
384,132.812500
385,132.812500
386,128.906250
387,128.906250
388,128.906250
389,128.906250
390,128.906250
391,128.906250
392,128.906250
393,128.906250
394,128.906250
395,128.906250
396,128.906250
397,128.906250
398,125.000000
399,125.000000
400,125.000000
401,125.000000
402,125.000000
403,125.000000
404,125.000000
405,125.000000
406,125.000000
407,121.093750
408,121.093750
409,121.093750
410,121.093750
411,121.093750
412,121.093750
413,121.093750
414,121.093750
415,121.093750
416,117.187500
417,117.187500
418,117.187500
419,117.187500
420,117.187500
421,117.187500
422,117.187500
423,117.187500
424,113.281250
425,113.281250
426,113.281250
427,113.281250
428,113.281250
429,113.281250
430,113.281250
431,109.375000
432,109.375000
433,109.375000
434,109.375000
435,109.375000
436,109.375000
437,109.375000
438,109.375000
439,105.468750
440,105.468750
441,105.468750
442,105.468750
443,105.468750
444,105.468750
445,101.562500
446,101.562500
447,101.562500
448,101.562500
449,101.562500
450,97.656250
451,97.656250
452,97.656250
453,97.656250
454,97.656250
455,97.656250
456,97.656250
457,93.750000
458,93.750000
459,93.750000
460,93.750000
461,93.750000
462,89.843750
463,89.843750
464,89.843750
465,89.843750
466,89.843750
467,89.843750
468,85.937500
469,85.937500
470,85.937500
471,85.937500
472,82.031250
473,82.031250
474,82.031250
475,82.031250
476,82.031250
477,82.031250
478,78.125000
479,78.125000
480,78.125000
481,78.125000
482,74.218750
483,74.218750
484,74.218750
485,74.218750
486,74.218750
487,74.218750
488,74.218750
489,70.312500
490,70.312500
491,70.312500
492,66.406250
493,66.406250
494,66.406250
495,66.406250
496,66.406250
497,66.406250
498,62.500000
499,62.500000
500,62.500000
501,58.593750
502,58.593750
503,58.593750
504,58.593750
505,58.593750
506,54.687500
507,54.687500
508,54.687500
509,54.687500
510,50.781250
511,50.781250
512,50.781250
513,50.781250
514,50.781250
515,46.875000
516,46.875000
517,46.875000
518,46.875000
519,42.968750
520,42.968750
521,42.968750
522,42.968750
523,39.062500
524,39.062500
525,39.062500
526,39.062500
527,39.062500
528,35.156250
529,35.156250
530,35.156250
531,35.156250
532,31.250000
533,31.250000
534,31.250000
535,31.250000
536,27.343750
537,27.343750
538,27.343750
539,23.437500
540,23.437500
541,23.437500
542,23.437500
543,19.531250
544,19.531250
545,19.531250
546,19.531250
547,15.625000
548,15.625000
549,15.625000
550,15.625000
551,11.718750
552,11.718750
553,11.718750
554,11.718750
555,7.812500
556,7.812500
557,7.812500
558,3.906250
559,3.906250
560,3.906250
561,3.906250
562,0.000000
563,0.000000
564,0.000000
565,0.000000
566,0.000000
567,-3.906250
568,-3.906250
569,-3.906250
570,-7.812500
571,-7.812500
572,-7.812500
573,-7.812500
574,-11.718750
575,-11.718750
576,-11.718750
577,-11.718750
578,-15.625000
579,-15.625000
580,-19.531250
581,-19.531250
582,-19.531250
583,-19.531250
584,-19.531250
585,-23.437500
586,-23.437500
587,-23.437500
588,-27.343750
589,-27.343750
590,-27.343750
591,-31.250000
592,-31.250000
593,-31.250000
594,-31.250000
595,-31.250000
596,-35.156250
597,-35.156250
598,-35.156250
599,-39.062500
600,-39.062500
601,-39.062500
602,-42.968750
603,-42.968750
604,-42.968750
605,-42.968750
606,-42.968750
607,-46.875000
608,-46.875000
609,-46.875000
610,-50.781250
611,-50.781250
612,-50.781250
613,-50.781250
614,-54.687500
615,-54.687500
616,-54.687500
617,-54.687500
618,-58.593750
619,-58.593750
620,-62.500000
621,-62.500000
622,-62.500000
623,-62.500000
624,-62.500000
625,-66.406250
626,-66.406250
627,-66.406250
628,-66.406250
629,-70.312500
630,-70.312500
631,-70.312500
632,-74.218750
633,-74.218750
634,-74.218750
635,-74.218750
636,-78.125000
637,-78.125000
638,-78.125000
639,-78.125000
640,-82.031250
641,-82.031250
642,-82.031250
643,-82.031250
644,-85.937500
645,-85.937500
646,-85.937500
647,-85.937500
648,-89.843750
649,-89.843750
650,-89.843750
651,-89.843750
652,-93.750000
653,-93.750000
654,-93.750000
655,-93.750000
656,-97.656250
657,-97.656250
658,-97.656250
659,-97.656250
660,-101.562500
661,-101.562500
662,-101.562500
663,-101.562500
664,-101.562500
665,-105.468750
666,-105.468750
667,-105.468750
668,-105.468750
669,-109.375000
670,-109.375000
671,-109.375000
672,-113.281250
673,-113.281250
674,-113.281250
675,-113.281250
676,-113.281250
677,-117.187500
678,-117.187500
679,-117.187500
680,-121.093750
681,-121.093750
682,-121.093750
683,-121.093750
684,-121.093750
685,-121.093750
686,-121.093750
687,-125.000000
688,-125.000000
689,-125.000000
690,-125.000000
691,-128.906250
692,-128.906250
693,-128.906250
694,-128.906250
695,-132.812500
696,-132.812500
697,-132.812500
698,-132.812500
699,-132.812500
700,-136.718750
701,-136.718750
702,-136.718750
703,-136.718750
704,-136.718750
705,-136.718750
706,-140.625000
707,-140.625000
708,-140.625000
709,-140.625000
710,-144.531250
711,-144.531250
712,-144.531250
713,-144.531250
714,-144.531250
715,-144.531250
716,-148.437500
717,-148.437500
718,-148.437500
719,-148.437500
720,-152.343750
721,-152.343750
722,-152.343750
723,-152.343750
724,-152.343750
725,-152.343750
726,-152.343750
727,-156.250000
728,-156.250000
729,-156.250000
730,-156.250000
731,-156.250000
732,-156.250000
733,-156.250000
734,-156.250000
735,-160.156250
736,-160.156250
737,-160.156250
738,-160.156250
739,-160.156250
740,-164.062500
741,-164.062500
742,-164.062500
743,-164.062500
744,-164.062500
745,-164.062500
746,-164.062500
747,-164.062500
748,-167.968750
749,-167.968750
750,-167.968750
751,-167.968750
752,-167.968750
753,-167.968750
754,-167.968750
755,-167.968750
756,-171.875000
757,-167.968750
758,-171.875000
759,-171.875000
760,-171.875000
761,-171.875000
762,-171.875000
763,-171.875000
764,-171.875000
765,-171.875000
766,-171.875000
767,-175.781250
768,-175.781250
769,-175.781250
770,-175.781250
771,-175.781250
772,-175.781250
773,-175.781250
774,-175.781250
775,-175.781250
776,-175.781250
777,-175.781250
778,-175.781250
779,-175.781250
780,-179.687500
781,-179.687500
782,-179.687500
783,-179.687500
784,-179.687500
785,-179.687500
786,-179.687500
787,-179.687500
788,-179.687500
789,-179.687500
790,-179.687500
791,-179.687500
792,-179.687500
793,-179.687500
794,-179.687500
795,-179.687500
796,-179.687500
797,-179.687500
798,-179.687500
799,-179.687500
800,-183.593750
801,-183.593750
802,-183.593750
803,-183.593750
804,-183.593750
805,-179.687500
806,-183.593750
807,-183.593750
808,-183.593750
809,-183.593750
810,-183.593750
811,-183.593750
812,-183.593750
813,-183.593750
814,-183.593750
815,-183.593750
816,-183.593750
817,-183.593750
818,-183.593750
819,-183.593750
820,-183.593750
821,-183.593750
822,-183.593750
823,-179.687500
824,-183.593750
825,-183.593750
826,-183.593750
827,-183.593750
828,-183.593750
829,-183.593750
830,-183.593750
831,-183.593750
832,-183.593750
833,-183.593750
834,-179.687500
835,-179.687500
836,-179.687500
837,-179.687500
838,-179.687500
839,-179.687500
840,-179.687500
841,-179.687500
842,-179.687500
843,-179.687500
844,-179.687500
845,-179.687500
846,-179.687500
847,-179.687500
848,-179.687500
849,-179.687500
850,-179.687500
851,-179.687500
852,-179.687500
853,-175.781250
854,-175.781250
855,-175.781250
856,-175.781250
857,-175.781250
858,-175.781250
859,-175.781250
860,-175.781250
861,-175.781250
862,-175.781250
863,-175.781250
864,-175.781250
865,-175.781250
866,-171.875000
867,-171.875000
868,-171.875000
869,-171.875000
870,-171.875000
871,-171.875000
872,-171.875000
873,-171.875000
874,-171.875000
875,-167.968750
876,-167.968750
877,-167.968750
878,-167.968750
879,-167.968750
880,-167.968750
881,-167.968750
882,-167.968750
883,-167.968750
884,-164.062500
885,-164.062500
886,-164.062500
887,-164.062500
888,-164.062500
889,-164.062500
890,-164.062500
891,-164.062500
892,-160.156250
893,-160.156250
894,-160.156250
895,-160.156250
896,-156.250000
897,-156.250000
898,-156.250000
899,-156.250000
900,-156.250000
901,-156.250000
902,-156.250000
903,-156.250000
904,-152.343750
905,-152.343750
906,-152.343750
907,-152.343750
908,-152.343750
909,-152.343750
910,-148.437500
911,-148.437500
912,-148.437500
913,-148.437500
914,-144.531250
915,-144.531250
916,-144.531250
917,-144.531250
918,-144.531250
919,-144.531250
920,-144.531250
921,-140.625000
922,-140.625000
923,-140.625000
924,-140.625000
925,-136.718750
926,-136.718750
927,-136.718750
928,-136.718750
929,-136.718750
930,-136.718750
931,-132.812500
932,-132.812500
933,-132.812500
934,-132.812500
935,-132.812500
936,-128.906250
937,-128.906250
938,-128.906250
939,-128.906250
940,-128.906250
941,-125.000000
942,-125.000000
943,-125.000000
944,-125.000000
945,-121.093750
946,-121.093750
947,-121.093750
948,-121.093750
949,-117.187500
950,-117.187500
951,-117.187500
952,-117.187500
953,-117.187500
954,-113.281250
955,-113.281250
956,-113.281250
957,-113.281250
958,-109.375000
959,-109.375000
960,-109.375000
961,-109.375000
962,-109.375000
963,-105.468750
964,-105.468750
965,-101.562500
966,-101.562500
967,-101.562500
968,-101.562500
969,-101.562500
970,-101.562500
971,-97.656250
972,-97.656250
973,-97.656250
974,-97.656250
975,-93.750000
976,-93.750000
977,-93.750000
978,-93.750000
979,-89.843750
980,-89.843750
981,-89.843750
982,-89.843750
983,-85.937500
984,-85.937500
985,-85.937500
986,-85.937500
987,-82.031250
988,-82.031250
989,-82.031250
990,-82.031250
991,-78.125000
992,-78.125000
993,-78.125000
994,-74.218750
995,-74.218750
996,-74.218750
997,-74.218750
998,-70.312500
999,-70.312500
1000,-70.312500
1001,-70.312500
1002,-66.406250
1003,-66.406250
1004,-66.406250
1005,-62.500000
1006,-62.500000
1007,-62.500000
1008,-62.500000
1009,-62.500000
1010,-58.593750
1011,-58.593750
1012,-58.593750
1013,-54.687500
1014,-54.687500
1015,-54.687500
1016,-54.687500
1017,-50.781250
1018,-50.781250
1019,-50.781250
1020,-50.781250
1021,-46.875000
1022,-46.875000
1023,-46.875000
1024,-42.968750
1025,-42.968750
1026,-42.968750
1027,-42.968750
1028,-39.062500
1029,-39.062500
1030,-39.062500
1031,-39.062500
1032,-35.156250
1033,-35.156250
1034,-35.156250
1035,-31.250000
1036,-31.250000
1037,-31.250000
1038,-31.250000
1039,-27.343750
1040,-27.343750
1041,-27.343750
1042,-23.437500
1043,-23.437500
1044,-23.437500
1045,-23.437500
1046,-19.531250
1047,-19.531250
1048,-19.531250
1049,-19.531250
1050,-15.625000
1051,-15.625000
1052,-15.625000
1053,-11.718750
1054,-11.718750
1055,-11.718750
1056,-7.812500
1057,-7.812500
1058,-7.812500
1059,-7.812500
1060,-7.812500
1061,-3.906250
1062,-3.906250
1063,-3.906250
1064,0.000000
1065,0.000000
1066,0.000000
1067,0.000000
1068,3.906250
1069,3.906250
1070,3.906250
1071,3.906250
1072,7.812500
1073,7.812500
1074,7.812500
1075,11.718750
1076,11.718750
1077,11.718750
1078,11.718750
1079,15.625000
1080,15.625000
1081,15.625000
1082,15.625000
1083,19.531250
1084,19.531250
1085,19.531250
1086,19.531250
1087,23.437500
1088,23.437500
1089,23.437500
1090,23.437500
1091,27.343750
1092,27.343750
1093,27.343750
1094,27.343750
1095,31.250000
1096,31.250000
1097,31.250000
1098,31.250000
1099,31.250000
1100,35.156250
1101,35.156250
1102,39.062500
1103,39.062500
1104,39.062500
1105,39.062500
1106,39.062500
1107,42.968750
1108,42.968750
1109,42.968750
1110,42.968750
1111,46.875000
1112,46.875000
1113,46.875000
1114,46.875000
1115,50.781250
1116,50.781250
1117,50.781250
1118,50.781250
1119,50.781250
1120,54.687500
1121,54.687500
1122,54.687500
1123,54.687500
1124,58.593750
1125,58.593750
1126,58.593750
1127,58.593750
1128,58.593750
1129,62.500000
1130,62.500000
1131,62.500000
1132,62.500000
1133,66.406250
1134,66.406250
1135,66.406250
1136,66.406250
1137,66.406250
1138,70.312500
1139,70.312500
1140,70.312500
1141,70.312500
1142,70.312500
1143,74.218750
1144,74.218750
1145,74.218750
1146,74.218750
1147,78.125000
1148,74.218750
1149,78.125000
1150,78.125000
1151,78.125000
1152,78.125000
1153,82.031250
1154,82.031250
1155,82.031250
1156,82.031250
1157,82.031250
1158,85.937500
1159,85.937500
1160,85.937500
1161,85.937500
1162,85.937500
1163,89.843750
1164,89.843750
1165,89.843750
1166,89.843750
1167,89.843750
1168,89.843750
1169,89.843750
1170,93.750000
1171,93.750000
1172,93.750000
1173,93.750000
1174,97.656250
1175,97.656250
1176,97.656250
1177,97.656250
1178,97.656250
1179,97.656250
1180,101.562500
1181,101.562500
1182,101.562500
1183,101.562500
1184,101.562500
1185,101.562500
1186,101.562500
1187,105.468750
1188,105.468750
1189,105.468750
1190,105.468750
1191,105.468750
1192,109.375000
1193,109.375000
1194,109.375000
1195,109.375000
1196,109.375000
1197,109.375000
1198,109.375000
1199,109.375000
1200,109.375000
1201,113.281250
1202,113.281250
1203,113.281250
1204,113.281250
1205,113.281250
1206,113.281250
1207,117.187500
1208,117.187500
1209,117.187500
1210,117.187500
1211,117.187500
1212,117.187500
1213,117.187500
1214,117.187500
1215,121.093750
1216,121.093750
1217,121.093750
1218,121.093750
1219,121.093750
1220,121.093750
1221,121.093750
1222,121.093750
1223,125.000000
1224,125.000000
1225,125.000000
1226,125.000000
1227,125.000000
1228,125.000000
1229,125.000000
1230,125.000000
1231,128.906250
1232,125.000000
1233,128.906250
1234,128.906250
1235,128.906250
1236,128.906250
1237,128.906250
1238,128.906250
1239,128.906250
1240,128.906250
1241,128.906250
1242,128.906250
1243,128.906250
1244,128.906250
1245,132.812500
1246,128.906250
1247,132.812500
1248,132.812500
1249,132.812500
1250,132.812500
1251,132.812500
1252,132.812500
1253,132.812500
1254,132.812500
1255,132.812500
1256,132.812500
1257,132.812500
1258,132.812500
1259,132.812500
1260,132.812500
1261,136.718750
1262,136.718750
1263,136.718750
1264,136.718750
1265,136.718750
1266,136.718750
1267,136.718750
1268,136.718750
1269,136.718750
1270,136.718750
1271,136.718750
1272,136.718750
1273,136.718750
1274,136.718750
1275,136.718750
1276,136.718750
1277,136.718750
1278,136.718750
1279,140.625000
1280,140.625000
1281,140.625000
1282,140.625000
1283,140.625000
1284,140.625000
1285,140.625000
1286,140.625000
1287,140.625000
1288,140.625000
1289,140.625000
1290,140.625000
1291,140.625000
1292,140.625000
1293,140.625000
1294,140.625000
1295,140.625000
1296,140.625000
1297,140.625000
1298,140.625000
1299,140.625000
1300,140.625000
1301,140.625000
1302,140.625000
1303,140.625000
1304,140.625000
1305,140.625000
1306,140.625000
1307,140.625000
1308,140.625000
1309,140.625000
1310,140.625000
1311,140.625000
1312,140.625000
1313,140.625000
1314,140.625000
1315,140.625000
1316,140.625000
1317,140.625000
1318,140.625000
1319,140.625000
1320,140.625000
1321,140.625000
1322,140.625000
1323,140.625000
1324,140.625000
1325,140.625000
1326,140.625000
1327,140.625000
1328,140.625000
1329,140.625000
1330,140.625000
1331,140.625000
1332,140.625000
1333,140.625000
1334,140.625000
1335,140.625000
1336,140.625000
1337,140.625000
1338,140.625000
1339,140.625000
1340,140.625000
1341,140.625000
1342,140.625000
1343,140.625000
1344,140.625000
1345,136.718750
1346,136.718750
1347,136.718750
1348,136.718750
1349,136.718750
1350,136.718750
1351,136.718750
1352,136.718750
1353,136.718750
1354,136.718750
1355,136.718750
1356,136.718750
1357,136.718750
1358,136.718750
1359,136.718750
1360,132.812500
1361,132.812500
1362,132.812500
1363,132.812500
1364,132.812500
1365,132.812500
1366,132.812500
1367,132.812500
1368,132.812500
1369,132.812500
1370,132.812500
1371,132.812500
1372,132.812500
1373,132.812500
1374,132.812500
1375,132.812500
1376,128.906250
1377,128.906250
1378,128.906250
1379,128.906250
1380,128.906250
1381,128.906250
1382,128.906250
1383,128.906250
1384,128.906250
1385,128.906250
1386,125.000000
1387,125.000000
1388,125.000000
1389,125.000000
1390,125.000000
1391,125.000000
1392,125.000000
1393,125.000000
1394,125.000000
1395,121.093750
1396,121.093750
1397,121.093750
1398,121.093750
1399,121.093750
1400,121.093750
1401,121.093750
1402,121.093750
1403,121.093750
1404,121.093750
1405,117.187500
1406,117.187500
1407,117.187500
1408,117.187500
1409,117.187500
1410,117.187500
1411,117.187500
1412,117.187500
1413,113.281250
1414,113.281250
1415,113.281250
1416,113.281250
1417,113.281250
1418,113.281250
1419,109.375000
1420,109.375000
1421,113.281250
1422,109.375000
1423,109.375000
1424,109.375000
1425,109.375000
1426,109.375000
1427,105.468750
1428,105.468750
1429,105.468750
1430,105.468750
1431,105.468750
1432,105.468750
1433,105.468750
1434,101.562500
1435,101.562500
1436,101.562500
1437,101.562500
1438,101.562500
1439,101.562500
1440,97.656250
1441,97.656250
1442,97.656250
1443,97.656250
1444,97.656250
1445,97.656250
1446,93.750000
1447,93.750000
1448,93.750000
1449,89.843750
1450,93.750000
1451,93.750000
1452,93.750000
1453,89.843750
1454,89.843750
1455,89.843750
1456,89.843750
1457,85.937500
1458,85.937500
1459,85.937500
1460,85.937500
1461,85.937500
1462,85.937500
1463,85.937500
1464,82.031250
1465,82.031250
1466,82.031250
1467,82.031250
1468,78.125000
1469,78.125000
1470,78.125000
1471,78.125000
1472,78.125000
1473,78.125000
1474,74.218750
1475,74.218750
1476,74.218750
1477,74.218750
1478,70.312500
1479,70.312500
1480,70.312500
1481,70.312500
1482,70.312500
1483,66.406250
1484,66.406250
1485,66.406250
1486,66.406250
1487,62.500000
1488,62.500000
1489,62.500000
1490,62.500000
1491,62.500000
1492,62.500000
1493,58.593750
1494,58.593750
1495,58.593750
1496,54.687500
1497,54.687500
1498,54.687500
1499,50.781250
1500,50.781250
1501,50.781250
1502,50.781250
1503,50.781250
1504,46.875000
1505,46.875000
1506,46.875000
1507,46.875000
1508,46.875000
1509,42.968750
1510,42.968750
1511,42.968750
1512,42.968750
1513,39.062500
1514,39.062500
1515,39.062500
1516,39.062500
1517,35.156250
1518,35.156250
1519,35.156250
1520,31.250000
1521,31.250000
1522,31.250000
1523,31.250000
1524,31.250000
1525,31.250000
1526,27.343750
1527,27.343750
1528,23.437500
1529,23.437500
1530,23.437500
1531,23.437500
1532,23.437500
1533,19.531250
1534,19.531250
1535,19.531250
1536,15.625000
1537,15.625000
1538,15.625000
1539,15.625000
1540,15.625000
1541,11.718750
1542,11.718750
1543,11.718750
1544,7.812500
1545,7.812500
1546,7.812500
1547,7.812500
1548,3.906250
1549,3.906250
1550,3.906250
1551,3.906250
1552,0.000000
1553,0.000000
1554,0.000000
1555,-3.906250
1556,-3.906250
1557,-3.906250
1558,-3.906250
1559,-3.906250
1560,-7.812500
1561,-7.812500
1562,-7.812500
1563,-11.718750
1564,-11.718750
1565,-11.718750
1566,-11.718750
1567,-15.625000
1568,-15.625000
1569,-15.625000
1570,-19.531250
1571,-19.531250
1572,-19.531250
1573,-19.531250
1574,-23.437500
1575,-23.437500
1576,-23.437500
1577,-27.343750
1578,-27.343750
1579,-27.343750
1580,-27.343750
1581,-27.343750
1582,-31.250000
1583,-31.250000
1584,-31.250000
1585,-35.156250
1586,-35.156250
1587,-35.156250
1588,-39.062500
1589,-39.062500
1590,-39.062500
1591,-39.062500
1592,-39.062500
1593,-42.968750
1594,-42.968750
1595,-42.968750
1596,-46.875000
1597,-46.875000
1598,-46.875000
1599,-50.781250
1600,-50.781250
1601,-50.781250
1602,-50.781250
1603,-50.781250
1604,-54.687500
1605,-54.687500
1606,-54.687500
1607,-58.593750
1608,-58.593750
1609,-58.593750
1610,-58.593750
1611,-62.500000
1612,-62.500000
1613,-62.500000
1614,-62.500000
1615,-66.406250
1616,-66.406250
1617,-66.406250
1618,-70.312500
1619,-70.312500
1620,-70.312500
1621,-70.312500
1622,-74.218750
1623,-74.218750
1624,-74.218750
1625,-78.125000
1626,-78.125000
1627,-78.125000
1628,-78.125000
1629,-78.125000
1630,-82.031250
1631,-82.031250
1632,-82.031250
1633,-82.031250
1634,-85.937500
1635,-85.937500
1636,-85.937500
1637,-85.937500
1638,-89.843750
1639,-89.843750
1640,-89.843750
1641,-89.843750
1642,-93.750000
1643,-93.750000
1644,-93.750000
1645,-97.656250
1646,-97.656250
1647,-97.656250
1648,-101.562500
1649,-101.562500
1650,-101.562500
1651,-101.562500
1652,-101.562500
1653,-101.562500
1654,-105.468750
1655,-105.468750
1656,-105.468750
1657,-109.375000
1658,-109.375000
1659,-109.375000
1660,-109.375000
1661,-109.375000
1662,-113.281250
1663,-113.281250
1664,-113.281250
1665,-113.281250
1666,-117.187500
1667,-117.187500
1668,-117.187500
1669,-117.187500
1670,-117.187500
1671,-121.093750
1672,-121.093750
1673,-121.093750
1674,-121.093750
1675,-121.093750
1676,-125.000000
1677,-125.000000
1678,-125.000000
1679,-125.000000
1680,-128.906250
1681,-128.906250
1682,-128.906250
1683,-128.906250
1684,-128.906250
1685,-132.812500
1686,-132.812500
1687,-132.812500
1688,-132.812500
1689,-132.812500
1690,-136.718750
1691,-136.718750
1692,-136.718750
1693,-136.718750
1694,-136.718750
1695,-140.625000
1696,-140.625000
1697,-140.625000
1698,-140.625000
1699,-140.625000
1700,-144.531250
1701,-144.531250
1702,-144.531250
1703,-144.531250
1704,-144.531250
1705,-148.437500
1706,-148.437500
1707,-148.437500
1708,-148.437500
1709,-148.437500
1710,-148.437500
1711,-152.343750
1712,-152.343750
1713,-152.343750
1714,-152.343750
1715,-152.343750
1716,-152.343750
1717,-152.343750
1718,-156.250000
1719,-156.250000
1720,-156.250000
1721,-156.250000
1722,-156.250000
1723,-156.250000
1724,-160.156250
1725,-160.156250
1726,-160.156250
1727,-160.156250
1728,-160.156250
1729,-160.156250
1730,-160.156250
1731,-160.156250
1732,-164.062500
1733,-164.062500
1734,-164.062500
1735,-164.062500
1736,-164.062500
1737,-164.062500
1738,-167.968750
1739,-167.968750
1740,-167.968750
1741,-167.968750
1742,-167.968750
1743,-167.968750
1744,-167.968750
1745,-167.968750
1746,-167.968750
1747,-167.968750
1748,-171.875000
1749,-171.875000
1750,-171.875000
1751,-171.875000
1752,-171.875000
1753,-171.875000
1754,-171.875000
1755,-171.875000
1756,-171.875000
1757,-171.875000
1758,-175.781250
1759,-175.781250
1760,-175.781250
1761,-175.781250
1762,-175.781250
1763,-175.781250
1764,-175.781250
1765,-175.781250
1766,-175.781250
1767,-175.781250
1768,-179.687500
1769,-179.687500
1770,-179.687500
1771,-179.687500
1772,-179.687500
1773,-179.687500
1774,-179.687500
1775,-179.687500
1776,-179.687500
1777,-179.687500
1778,-179.687500
1779,-179.687500
1780,-179.687500
1781,-179.687500
1782,-179.687500
1783,-179.687500
1784,-179.687500
1785,-183.593750
1786,-183.593750
1787,-183.593750
1788,-179.687500
1789,-183.593750
1790,-183.593750
1791,-183.593750
1792,-183.593750
1793,-183.593750
1794,-183.593750
1795,-183.593750
1796,-183.593750
1797,-183.593750
1798,-183.593750
1799,-183.593750
1800,-183.593750
1801,-183.593750
1802,-183.593750
1803,-183.593750
1804,-183.593750
1805,-183.593750
1806,-183.593750
1807,-183.593750
1808,-183.593750
1809,-183.593750
1810,-183.593750
1811,-183.593750
1812,-183.593750
1813,-183.593750
1814,-183.593750
1815,-183.593750
1816,-183.593750
1817,-183.593750
1818,-183.593750
1819,-183.593750
1820,-183.593750
1821,-179.687500
1822,-179.687500
1823,-179.687500
1824,-179.687500
1825,-179.687500
1826,-179.687500
1827,-179.687500
1828,-179.687500
1829,-179.687500
1830,-179.687500
1831,-179.687500
1832,-179.687500
1833,-179.687500
1834,-179.687500
1835,-179.687500
1836,-179.687500
1837,-179.687500
1838,-179.687500
1839,-179.687500
1840,-179.687500
1841,-175.781250
1842,-175.781250
1843,-175.781250
1844,-175.781250
1845,-175.781250
1846,-175.781250
1847,-175.781250
1848,-175.781250
1849,-175.781250
1850,-175.781250
1851,-175.781250
1852,-175.781250
1853,-171.875000
1854,-171.875000
1855,-171.875000
1856,-171.875000
1857,-171.875000
1858,-171.875000
1859,-171.875000
1860,-171.875000
1861,-171.875000
1862,-167.968750
1863,-167.968750
1864,-167.968750
1865,-167.968750
1866,-167.968750
1867,-167.968750
1868,-167.968750
1869,-167.968750
1870,-167.968750
1871,-164.062500
1872,-164.062500
1873,-164.062500
1874,-164.062500
1875,-164.062500
1876,-164.062500
1877,-164.062500
1878,-164.062500
1879,-164.062500
1880,-160.156250
1881,-160.156250
1882,-160.156250
1883,-160.156250
1884,-160.156250
1885,-160.156250
1886,-160.156250
1887,-156.250000
1888,-156.250000
1889,-156.250000
1890,-156.250000
1891,-156.250000
1892,-156.250000
1893,-152.343750
1894,-152.343750
1895,-152.343750
1896,-152.343750
1897,-152.343750
1898,-152.343750
1899,-152.343750
1900,-148.437500
1901,-148.437500
1902,-148.437500
1903,-148.437500
1904,-148.437500
1905,-148.437500
1906,-144.531250
1907,-144.531250
1908,-144.531250
1909,-144.531250
1910,-140.625000
1911,-140.625000
1912,-140.625000
1913,-140.625000
1914,-140.625000
1915,-140.625000
1916,-136.718750
1917,-136.718750
1918,-136.718750
1919,-136.718750
1920,-136.718750
1921,-132.812500
1922,-132.812500
1923,-132.812500
1924,-132.812500
1925,-128.906250
1926,-128.906250
1927,-128.906250
1928,-128.906250
1929,-128.906250
1930,-125.000000
1931,-125.000000
1932,-125.000000
1933,-125.000000
1934,-121.093750
1935,-125.000000
1936,-121.093750
1937,-121.093750
1938,-121.093750
1939,-121.093750
1940,-117.187500
1941,-117.187500
1942,-117.187500
1943,-113.281250
1944,-113.281250
1945,-113.281250
1946,-113.281250
1947,-113.281250
1948,-109.375000
1949,-109.375000
1950,-109.375000
1951,-109.375000
1952,-105.468750
1953,-105.468750
1954,-105.468750
1955,-105.468750
1956,-105.468750
1957,-101.562500
1958,-101.562500
1959,-101.562500
1960,-97.656250
1961,-97.656250
1962,-97.656250
1963,-97.656250
1964,-93.750000
1965,-93.750000
1966,-93.750000
1967,-93.750000
1968,-89.843750
1969,-89.843750
1970,-89.843750
1971,-89.843750
1972,-85.937500
1973,-85.937500
1974,-85.937500
1975,-85.937500
1976,-82.031250
1977,-82.031250
1978,-82.031250
1979,-82.031250
1980,-78.125000
1981,-78.125000
1982,-78.125000
1983,-78.125000
1984,-74.218750
1985,-74.218750
1986,-74.218750
1987,-70.312500
1988,-70.312500
1989,-70.312500
1990,-66.406250
1991,-66.406250
1992,-66.406250
1993,-66.406250
1994,-66.406250
1995,-62.500000
1996,-62.500000
1997,-62.500000
1998,-62.500000
1999,-58.593750
2000,-58.593750
2001,-58.593750
2002,-58.593750
2003,-54.687500
2004,-54.687500
2005,-54.687500
2006,-50.781250
2007,-50.781250
2008,-50.781250
2009,-50.781250
2010,-46.875000
2011,-46.875000
2012,-46.875000
2013,-46.875000
2014,-42.968750
2015,-42.968750
2016,-42.968750
2017,-39.062500
2018,-39.062500
2019,-39.062500
2020,-39.062500
2021,-35.156250
2022,-35.156250
2023,-35.156250
2024,-35.156250
2025,-31.250000
2026,-31.250000
2027,-31.250000
2028,-27.343750
2029,-27.343750
2030,-27.343750
2031,-27.343750
2032,-23.437500
2033,-23.437500
2034,-23.437500
2035,-23.437500
2036,-19.531250
2037,-19.531250
2038,-19.531250
2039,-15.625000
2040,-15.625000
2041,-15.625000
2042,-15.625000
2043,-11.718750
2044,-11.718750
2045,-11.718750
2046,-11.718750
2047,-7.812500
2048,-7.812500
2049,-7.812500
2050,-7.812500
2051,-3.906250
2052,-3.906250
2053,-3.906250
2054,0.000000
2055,0.000000
2056,0.000000
2057,0.000000
2058,3.906250
2059,3.906250
2060,3.906250
2061,7.812500
2062,7.812500
2063,7.812500
2064,7.812500
2065,7.812500
2066,11.718750
2067,11.718750
2068,11.718750
2069,15.625000
2070,15.625000
2071,15.625000
2072,15.625000
2073,15.625000
2074,19.531250
2075,19.531250
2076,19.531250
2077,23.437500
2078,23.437500
2079,23.437500
2080,27.343750
2081,27.343750
2082,27.343750
2083,27.343750
2084,27.343750
2085,31.250000
2086,31.250000
2087,31.250000
2088,35.156250
2089,35.156250
2090,35.156250
2091,35.156250
2092,35.156250
2093,39.062500
2094,39.062500
2095,39.062500
2096,39.062500
2097,42.968750
2098,42.968750
2099,42.968750
2100,42.968750
2101,46.875000
2102,46.875000
2103,46.875000
2104,46.875000
2105,50.781250
2106,50.781250
2107,50.781250
2108,50.781250
2109,54.687500
2110,54.687500
2111,54.687500
2112,54.687500
2113,54.687500
2114,58.593750
2115,58.593750
2116,58.593750
2117,58.593750
2118,58.593750
2119,62.500000
2120,62.500000
2121,62.500000
2122,66.406250
2123,66.406250
2124,66.406250
2125,66.406250
2126,66.406250
2127,66.406250
2128,70.312500
2129,70.312500
2130,70.312500
2131,70.312500
2132,74.218750
2133,74.218750
2134,74.218750
2135,74.218750
2136,74.218750
2137,78.125000
2138,78.125000
2139,78.125000
2140,78.125000
2141,78.125000
2142,82.031250
2143,82.031250
2144,82.031250
2145,82.031250
2146,82.031250
2147,85.937500
2148,82.031250
2149,85.937500
2150,85.937500
2151,85.937500
2152,85.937500
2153,89.843750
2154,89.843750
2155,89.843750
2156,89.843750
2157,89.843750
2158,89.843750
2159,93.750000
2160,93.750000
2161,93.750000
2162,93.750000
2163,93.750000
2164,97.656250
2165,97.656250
2166,97.656250
2167,97.656250
2168,97.656250
2169,97.656250
2170,101.562500
2171,101.562500
2172,101.562500
2173,101.562500
2174,101.562500
2175,101.562500
2176,101.562500
2177,101.562500
2178,105.468750
2179,105.468750
2180,105.468750
2181,105.468750
2182,105.468750
2183,109.375000
2184,109.375000
2185,109.375000
2186,109.375000
2187,109.375000
2188,109.375000
2189,113.281250
2190,113.281250
2191,113.281250
2192,113.281250
2193,113.281250
2194,113.281250
2195,113.281250
2196,113.281250
2197,117.187500
2198,117.187500
2199,117.187500
2200,117.187500
2201,117.187500
2202,117.187500
2203,117.187500
2204,117.187500
2205,117.187500
2206,121.093750
2207,121.093750
2208,121.093750
2209,121.093750
2210,121.093750
2211,121.093750
2212,121.093750
2213,125.000000
2214,121.093750
2215,125.000000
2216,125.000000
2217,125.000000
2218,125.000000
2219,125.000000
2220,125.000000
2221,128.906250
2222,125.000000
2223,125.000000
2224,128.906250
2225,128.906250
2226,128.906250
2227,128.906250
2228,128.906250
2229,128.906250
2230,128.906250
2231,128.906250
2232,128.906250
2233,128.906250
2234,128.906250
2235,132.812500
2236,132.812500
2237,132.812500
2238,132.812500
2239,132.812500
2240,132.812500
2241,132.812500
2242,132.812500
2243,132.812500
2244,132.812500
2245,132.812500
2246,132.812500
2247,132.812500
2248,132.812500
2249,136.718750
2250,136.718750
2251,136.718750
2252,136.718750
2253,136.718750
2254,136.718750
2255,136.718750
2256,136.718750
2257,136.718750
2258,136.718750
2259,136.718750
2260,136.718750
2261,136.718750
2262,136.718750
2263,136.718750
2264,136.718750
2265,136.718750
2266,136.718750
2267,140.625000
2268,136.718750
2269,140.625000
2270,140.625000
2271,140.625000
2272,140.625000
2273,140.625000
2274,140.625000
2275,140.625000
2276,140.625000
2277,140.625000
2278,140.625000
2279,140.625000
2280,140.625000
2281,140.625000
2282,140.625000
2283,140.625000
2284,140.625000
2285,140.625000
2286,140.625000
2287,140.625000
2288,140.625000
2289,140.625000
2290,140.625000
2291,140.625000
2292,140.625000
2293,140.625000
2294,140.625000
2295,140.625000
2296,140.625000
2297,140.625000
2298,140.625000
2299,140.625000
2300,140.625000
2301,140.625000
2302,140.625000
2303,140.625000
2304,140.625000
2305,140.625000
2306,140.625000
2307,140.625000
2308,140.625000
2309,140.625000
2310,140.625000
2311,140.625000
2312,140.625000
2313,140.625000
2314,140.625000
2315,140.625000
2316,140.625000
2317,140.625000
2318,140.625000
2319,140.625000
2320,140.625000
2321,140.625000
2322,140.625000
2323,140.625000
2324,140.625000
2325,140.625000
2326,140.625000
2327,140.625000
2328,140.625000
2329,140.625000
2330,136.718750
2331,140.625000
2332,136.718750
2333,136.718750
2334,136.718750
2335,136.718750
2336,136.718750
2337,136.718750
2338,136.718750
2339,136.718750
2340,136.718750
2341,136.718750
2342,136.718750
2343,136.718750
2344,136.718750
2345,136.718750
2346,136.718750
2347,136.718750
2348,136.718750
2349,136.718750
2350,136.718750
2351,136.718750
2352,132.812500
2353,132.812500
2354,132.812500
2355,132.812500
2356,132.812500
2357,132.812500
2358,132.812500
2359,132.812500
2360,132.812500
2361,132.812500
2362,132.812500
2363,132.812500
2364,128.906250
2365,128.906250
2366,128.906250
2367,128.906250
2368,128.906250
2369,128.906250
2370,128.906250
2371,128.906250
2372,128.906250
2373,128.906250
2374,125.000000
2375,128.906250
2376,125.000000
2377,128.906250
2378,125.000000
2379,125.000000
2380,125.000000
2381,125.000000
2382,125.000000
2383,125.000000
2384,125.000000
2385,121.093750
2386,121.093750
2387,121.093750
2388,121.093750
2389,121.093750
2390,121.093750
2391,121.093750
2392,121.093750
2393,121.093750
2394,121.093750
2395,117.187500
2396,117.187500
2397,117.187500
2398,117.187500
2399,117.187500
2400,117.187500
2401,117.187500
2402,113.281250
2403,113.281250
2404,113.281250
2405,113.281250
2406,113.281250
2407,113.281250
2408,113.281250
2409,113.281250
2410,109.375000
2411,109.375000
2412,109.375000
2413,109.375000
2414,109.375000
2415,109.375000
2416,105.468750
2417,105.468750
2418,105.468750
2419,105.468750
2420,105.468750
2421,105.468750
2422,105.468750
2423,105.468750
2424,101.562500
2425,101.562500
2426,101.562500
2427,101.562500
2428,101.562500
2429,101.562500
2430,97.656250
2431,97.656250
2432,97.656250
2433,97.656250
2434,97.656250
2435,93.750000
2436,93.750000
2437,93.750000
2438,93.750000
2439,93.750000
2440,93.750000
2441,89.843750
2442,89.843750
2443,89.843750
2444,89.843750
2445,89.843750
2446,89.843750
2447,89.843750
2448,85.937500
2449,85.937500
2450,85.937500
2451,82.031250
2452,82.031250
2453,82.031250
2454,82.031250
2455,82.031250
2456,82.031250
2457,78.125000
2458,78.125000
2459,78.125000
2460,78.125000
2461,78.125000
2462,78.125000
2463,74.218750
2464,74.218750
2465,74.218750
2466,74.218750
2467,70.312500
2468,70.312500
2469,70.312500
2470,70.312500
2471,70.312500
2472,70.312500
2473,66.406250
2474,66.406250
2475,66.406250
2476,62.500000
2477,62.500000
2478,62.500000
2479,62.500000
2480,62.500000
2481,62.500000
2482,58.593750
2483,58.593750
2484,58.593750
2485,58.593750
2486,54.687500
2487,54.687500
2488,54.687500
2489,54.687500
2490,50.781250
2491,50.781250
2492,50.781250
2493,50.781250
2494,46.875000
2495,46.875000
2496,46.875000
2497,46.875000
2498,46.875000
2499,46.875000
2500,42.968750
2501,42.968750
2502,39.062500
2503,39.062500
2504,39.062500
2505,39.062500
2506,35.156250
2507,35.156250
2508,35.156250
2509,35.156250
2510,35.156250
2511,31.250000
2512,31.250000
2513,31.250000
2514,27.343750
2515,27.343750
2516,27.343750
2517,27.343750
2518,27.343750
2519,23.437500
2520,23.437500
2521,23.437500
2522,23.437500
2523,19.531250
2524,19.531250
2525,19.531250
2526,15.625000
2527,15.625000
2528,15.625000
2529,15.625000
2530,15.625000
2531,11.718750
2532,11.718750
2533,11.718750
2534,7.812500
2535,7.812500
2536,7.812500
2537,7.812500
2538,7.812500
2539,3.906250
2540,3.906250
2541,3.906250
2542,0.000000
2543,0.000000
2544,0.000000
2545,-3.906250
2546,-3.906250
2547,-3.906250
2548,-3.906250
2549,-7.812500
2550,-7.812500
2551,-7.812500
2552,-7.812500
2553,-11.718750
2554,-11.718750
2555,-11.718750
2556,-15.625000
2557,-15.625000
2558,-15.625000
2559,-15.625000
2560,-19.531250
2561,-19.531250
2562,-19.531250
2563,-23.437500
2564,-23.437500
2565,-23.437500
2566,-23.437500
2567,-27.343750
2568,-27.343750
2569,-27.343750
2570,-31.250000
2571,-31.250000
2572,-31.250000
2573,-31.250000
2574,-35.156250
2575,-35.156250
2576,-35.156250
2577,-35.156250
2578,-39.062500
2579,-39.062500
2580,-39.062500
2581,-39.062500
2582,-42.968750
2583,-42.968750
2584,-42.968750
2585,-46.875000
2586,-46.875000
2587,-46.875000
2588,-46.875000
2589,-46.875000
2590,-50.781250
2591,-50.781250
2592,-50.781250
2593,-54.687500
2594,-54.687500
2595,-58.593750
2596,-54.687500
2597,-58.593750
2598,-58.593750
2599,-58.593750
2600,-58.593750
2601,-62.500000
2602,-62.500000
2603,-62.500000
2604,-62.500000
2605,-66.406250
2606,-66.406250
2607,-66.406250
2608,-70.312500
2609,-70.312500
2610,-70.312500
2611,-70.312500
2612,-74.218750
2613,-74.218750
2614,-74.218750
2615,-78.125000
2616,-78.125000
2617,-78.125000
2618,-78.125000
2619,-78.125000
2620,-82.031250
2621,-82.031250
2622,-82.031250
2623,-85.937500
2624,-85.937500
2625,-85.937500
2626,-85.937500
2627,-89.843750
2628,-89.843750
2629,-89.843750
2630,-89.843750
2631,-93.750000
2632,-93.750000
2633,-93.750000
2634,-97.656250
2635,-97.656250
2636,-97.656250
2637,-97.656250
2638,-97.656250
2639,-97.656250
2640,-101.562500
2641,-101.562500
2642,-101.562500
2643,-105.468750
2644,-105.468750
2645,-105.468750
2646,-105.468750
2647,-105.468750
2648,-109.375000
2649,-109.375000
2650,-113.281250
2651,-113.281250
2652,-113.281250
2653,-113.281250
2654,-113.281250
2655,-113.281250
2656,-117.187500
2657,-117.187500
2658,-117.187500
2659,-117.187500
2660,-117.187500
2661,-121.093750
2662,-121.093750
2663,-121.093750
2664,-121.093750
2665,-125.000000
2666,-125.000000
2667,-125.000000
2668,-125.000000
2669,-125.000000
2670,-128.906250
2671,-128.906250
2672,-128.906250
2673,-128.906250
2674,-132.812500
2675,-132.812500
2676,-132.812500
2677,-132.812500
2678,-132.812500
2679,-136.718750
2680,-136.718750
2681,-136.718750
2682,-136.718750
2683,-140.625000
2684,-140.625000
2685,-140.625000
2686,-140.625000
2687,-140.625000
2688,-140.625000
2689,-140.625000
2690,-144.531250
2691,-144.531250
2692,-144.531250
2693,-144.531250
2694,-148.437500
2695,-148.437500
2696,-148.437500
2697,-148.437500
2698,-148.437500
2699,-148.437500
2700,-148.437500
2701,-152.343750
2702,-152.343750
2703,-152.343750
2704,-152.343750
2705,-152.343750
2706,-152.343750
2707,-152.343750
2708,-156.250000
2709,-156.250000
2710,-156.250000
2711,-156.250000
2712,-160.156250
2713,-160.156250
2714,-160.156250
2715,-160.156250
2716,-160.156250
2717,-160.156250
2718,-160.156250
2719,-160.156250
2720,-164.062500
2721,-164.062500
2722,-164.062500
2723,-164.062500
2724,-164.062500
2725,-164.062500
2726,-164.062500
2727,-164.062500
2728,-167.968750
2729,-167.968750
2730,-167.968750
2731,-167.968750
2732,-167.968750
2733,-167.968750
2734,-167.968750
2735,-167.968750
2736,-167.968750
2737,-171.875000
2738,-171.875000
2739,-171.875000
2740,-171.875000
2741,-171.875000
2742,-171.875000
2743,-171.875000
2744,-175.781250
2745,-175.781250
2746,-175.781250
2747,-175.781250
2748,-175.781250
2749,-175.781250
2750,-175.781250
2751,-175.781250
2752,-175.781250
2753,-175.781250
2754,-175.781250
2755,-175.781250
2756,-175.781250
2757,-179.687500
2758,-179.687500
2759,-179.687500
2760,-179.687500
2761,-179.687500
2762,-179.687500
2763,-179.687500
2764,-179.687500
2765,-179.687500
2766,-179.687500
2767,-179.687500
2768,-179.687500
2769,-179.687500
2770,-179.687500
2771,-179.687500
2772,-179.687500
2773,-179.687500
2774,-179.687500
2775,-179.687500
2776,-183.593750
2777,-179.687500
2778,-179.687500
2779,-183.593750
2780,-183.593750
2781,-183.593750
2782,-183.593750
2783,-183.593750
2784,-183.593750
2785,-183.593750
2786,-183.593750
2787,-183.593750
2788,-183.593750
2789,-183.593750
2790,-183.593750
2791,-183.593750
2792,-183.593750
2793,-183.593750
2794,-183.593750
2795,-183.593750
2796,-183.593750
2797,-183.593750
2798,-183.593750
2799,-183.593750
2800,-183.593750
2801,-183.593750
2802,-183.593750
2803,-183.593750
2804,-183.593750
2805,-183.593750
2806,-183.593750
2807,-183.593750
2808,-183.593750
2809,-179.687500
2810,-183.593750
2811,-183.593750
2812,-179.687500
2813,-183.593750
2814,-183.593750
2815,-183.593750
2816,-179.687500
2817,-179.687500
2818,-179.687500
2819,-179.687500
2820,-179.687500
2821,-179.687500
2822,-179.687500
2823,-179.687500
2824,-179.687500
2825,-179.687500
2826,-179.687500
2827,-179.687500
2828,-179.687500
2829,-179.687500
2830,-179.687500
2831,-175.781250
2832,-175.781250
2833,-175.781250
2834,-175.781250
2835,-175.781250
2836,-175.781250
2837,-175.781250
2838,-175.781250
2839,-175.781250
2840,-175.781250
2841,-175.781250
2842,-175.781250
2843,-175.781250
2844,-175.781250
2845,-171.875000
2846,-171.875000
2847,-171.875000
2848,-171.875000
2849,-171.875000
2850,-171.875000
2851,-171.875000
2852,-171.875000
2853,-171.875000
2854,-167.968750
2855,-167.968750
2856,-167.968750
2857,-167.968750
2858,-167.968750
2859,-167.968750
2860,-167.968750
2861,-164.062500
2862,-167.968750
2863,-164.062500
2864,-164.062500
2865,-164.062500
2866,-164.062500
2867,-164.062500
2868,-164.062500
2869,-160.156250
2870,-164.062500
2871,-160.156250
2872,-160.156250
2873,-160.156250
2874,-160.156250
2875,-160.156250
2876,-156.250000
2877,-156.250000
2878,-156.250000
2879,-156.250000
2880,-156.250000
2881,-156.250000
2882,-152.343750
2883,-152.343750
2884,-152.343750
2885,-152.343750
2886,-152.343750
2887,-152.343750
2888,-148.437500
2889,-148.437500
2890,-148.437500
2891,-148.437500
2892,-148.437500
2893,-148.437500
2894,-144.531250
2895,-144.531250
2896,-144.531250
2897,-144.531250
2898,-144.531250
2899,-140.625000
2900,-140.625000
2901,-140.625000
2902,-140.625000
2903,-140.625000
2904,-140.625000
2905,-140.625000
2906,-136.718750
2907,-136.718750
2908,-136.718750
2909,-136.718750
2910,-136.718750
2911,-132.812500
2912,-132.812500
2913,-132.812500
2914,-132.812500
2915,-128.906250
2916,-128.906250
2917,-128.906250
2918,-128.906250
2919,-125.000000
2920,-125.000000
2921,-125.000000
2922,-125.000000
2923,-121.093750
2924,-121.093750
2925,-121.093750
2926,-121.093750
2927,-121.093750
2928,-117.187500
2929,-117.187500
2930,-117.187500
2931,-117.187500
2932,-117.187500
2933,-117.187500
2934,-113.281250
2935,-113.281250
2936,-113.281250
2937,-109.375000
2938,-109.375000
2939,-109.375000
2940,-109.375000
2941,-109.375000
2942,-105.468750
2943,-105.468750
2944,-105.468750
2945,-105.468750
2946,-101.562500
2947,-101.562500
2948,-101.562500
2949,-97.656250
2950,-97.656250
2951,-97.656250
2952,-97.656250
2953,-97.656250
2954,-97.656250
2955,-93.750000
2956,-93.750000
2957,-89.843750
2958,-89.843750
2959,-89.843750
2960,-89.843750
2961,-89.843750
2962,-89.843750
2963,-85.937500
2964,-85.937500
2965,-85.937500
2966,-82.031250
2967,-82.031250
2968,-82.031250
2969,-82.031250
2970,-78.125000
2971,-78.125000
2972,-78.125000
2973,-78.125000
2974,-74.218750
2975,-74.218750
2976,-74.218750
2977,-70.312500
2978,-70.312500
2979,-70.312500
2980,-70.312500
2981,-70.312500
2982,-66.406250
2983,-66.406250
2984,-66.406250
2985,-62.500000
2986,-62.500000
2987,-62.500000
2988,-58.593750
2989,-58.593750
2990,-58.593750
2991,-58.593750
2992,-54.687500
2993,-54.687500
2994,-54.687500
2995,-50.781250
2996,-50.781250
2997,-50.781250
2998,-50.781250
2999,-46.875000
3000,-46.875000
3001,-46.875000
3002,-46.875000
3003,-42.968750
3004,-42.968750
3005,-42.968750
3006,-39.062500
3007,-39.062500
3008,-39.062500
3009,-39.062500
3010,-39.062500
3011,-35.156250
3012,-35.156250
3013,-35.156250
3014,-31.250000
3015,-31.250000
3016,-31.250000
3017,-31.250000
3018,-27.343750
3019,-27.343750
3020,-27.343750
3021,-27.343750
3022,-23.437500
3023,-23.437500
3024,-23.437500
3025,-19.531250
3026,-19.531250
3027,-19.531250
3028,-19.531250
3029,-15.625000
3030,-15.625000
3031,-15.625000
3032,-11.718750
3033,-11.718750
3034,-11.718750
3035,-11.718750
3036,-7.812500
3037,-7.812500
3038,-7.812500
3039,-7.812500
3040,-3.906250
3041,-3.906250
3042,-3.906250
3043,0.000000
3044,0.000000
3045,0.000000
3046,0.000000
3047,3.906250
3048,3.906250
3049,3.906250
3050,3.906250
3051,3.906250
3052,7.812500
3053,7.812500
3054,7.812500
3055,11.718750
3056,11.718750
3057,11.718750
3058,15.625000
3059,15.625000
3060,15.625000
3061,15.625000
3062,19.531250
3063,19.531250
3064,19.531250
3065,19.531250
3066,19.531250
3067,23.437500
3068,23.437500
3069,27.343750
3070,27.343750
3071,27.343750
3072,27.343750
3073,27.343750
3074,27.343750
3075,31.250000
3076,31.250000
3077,31.250000
3078,35.156250
3079,35.156250
3080,35.156250
3081,35.156250
3082,35.156250
3083,39.062500
3084,39.062500
3085,39.062500
3086,39.062500
3087,42.968750
3088,42.968750
3089,42.968750
3090,42.968750
3091,46.875000
3092,46.875000
3093,46.875000
3094,46.875000
3095,50.781250
3096,50.781250
3097,50.781250
3098,50.781250
3099,54.687500
3100,54.687500
3101,54.687500
3102,54.687500
3103,54.687500
3104,58.593750
3105,58.593750
3106,58.593750
3107,58.593750
3108,58.593750
3109,62.500000
3110,62.500000
3111,62.500000
3112,62.500000
3113,66.406250
3114,66.406250
3115,66.406250
3116,66.406250
3117,70.312500
3118,70.312500
3119,70.312500
3120,70.312500
3121,70.312500
3122,74.218750
3123,74.218750
3124,74.218750
3125,74.218750
3126,78.125000
3127,78.125000
3128,78.125000
3129,78.125000
3130,78.125000
3131,78.125000
3132,82.031250
3133,82.031250
3134,82.031250
3135,82.031250
3136,82.031250
3137,85.937500
3138,85.937500
3139,85.937500
3140,85.937500
3141,85.937500
3142,85.937500
3143,89.843750
3144,89.843750
3145,89.843750
3146,89.843750
3147,93.750000
3148,93.750000
3149,93.750000
3150,93.750000
3151,93.750000
3152,93.750000
3153,97.656250
3154,97.656250
3155,97.656250
3156,97.656250
3157,97.656250
3158,97.656250
3159,101.562500
3160,101.562500
3161,101.562500
3162,101.562500
3163,101.562500
3164,101.562500
3165,101.562500
3166,105.468750
3167,105.468750
3168,105.468750
3169,105.468750
3170,105.468750
3171,105.468750
3172,105.468750
3173,109.375000
3174,109.375000
3175,109.375000
3176,109.375000
3177,109.375000
3178,109.375000
3179,109.375000
3180,113.281250
3181,113.281250
3182,113.281250
3183,113.281250
3184,113.281250
3185,113.281250
3186,117.187500
3187,113.281250
3188,117.187500
3189,117.187500
3190,117.187500
3191,117.187500
3192,117.187500
3193,117.187500
3194,117.187500
3195,117.187500
3196,121.093750
3197,121.093750
3198,121.093750
3199,121.093750
3200,121.093750
3201,121.093750
3202,121.093750
3203,121.093750
3204,125.000000
3205,125.000000
3206,125.000000
3207,125.000000
3208,125.000000
3209,125.000000
3210,125.000000
3211,125.000000
3212,125.000000
3213,125.000000
3214,125.000000
3215,128.906250
3216,128.906250
3217,128.906250
3218,128.906250
3219,128.906250
3220,128.906250
3221,128.906250
3222,128.906250
3223,128.906250
3224,128.906250
3225,132.812500
3226,132.812500
3227,132.812500
3228,132.812500
3229,132.812500
3230,132.812500
3231,132.812500
3232,132.812500
3233,132.812500
3234,132.812500
3235,132.812500
3236,136.718750
3237,136.718750
3238,136.718750
3239,136.718750
3240,136.718750
3241,136.718750
3242,136.718750
3243,136.718750
3244,136.718750
3245,136.718750
3246,136.718750
3247,136.718750
3248,136.718750
3249,136.718750
3250,136.718750
3251,136.718750
3252,136.718750
3253,140.625000
3254,140.625000
3255,140.625000
3256,140.625000
3257,140.625000
3258,140.625000
3259,140.625000
3260,140.625000
3261,140.625000
3262,140.625000
3263,140.625000
3264,140.625000
3265,140.625000
3266,140.625000
3267,140.625000
3268,140.625000
3269,140.625000
3270,140.625000
3271,140.625000
3272,140.625000
3273,140.625000
3274,140.625000
3275,140.625000
3276,140.625000
3277,140.625000
3278,140.625000
3279,140.625000
3280,140.625000
3281,140.625000
3282,140.625000
3283,140.625000
3284,140.625000
3285,140.625000
3286,140.625000
3287,140.625000
3288,140.625000
3289,140.625000
3290,140.625000
3291,140.625000
3292,140.625000
3293,140.625000
3294,140.625000
3295,140.625000
3296,140.625000
3297,140.625000
3298,144.531250
3299,140.625000
3300,140.625000
3301,140.625000
3302,140.625000
3303,140.625000
3304,140.625000
3305,140.625000
3306,140.625000
3307,140.625000
3308,140.625000
3309,140.625000
3310,140.625000
3311,140.625000
3312,140.625000
3313,140.625000
3314,140.625000
3315,140.625000
3316,140.625000
3317,140.625000
3318,140.625000
3319,140.625000
3320,136.718750
3321,140.625000
3322,136.718750
3323,136.718750
3324,136.718750
3325,136.718750
3326,136.718750
3327,136.718750
3328,136.718750
3329,136.718750
3330,136.718750
3331,136.718750
3332,136.718750
3333,136.718750
3334,136.718750
3335,136.718750
3336,136.718750
3337,136.718750
3338,136.718750
3339,136.718750
3340,132.812500
3341,132.812500
3342,132.812500
3343,132.812500
3344,132.812500
3345,132.812500
3346,132.812500
3347,132.812500
3348,132.812500
3349,132.812500
3350,132.812500
3351,132.812500
3352,132.812500
3353,132.812500
3354,128.906250
3355,128.906250
3356,128.906250
3357,128.906250
3358,128.906250
3359,128.906250
3360,128.906250
3361,128.906250
3362,128.906250
3363,128.906250
3364,125.000000
3365,128.906250
3366,125.000000
3367,128.906250
3368,125.000000
3369,125.000000
3370,125.000000
3371,125.000000
3372,125.000000
3373,125.000000
3374,125.000000
3375,125.000000
3376,121.093750
3377,121.093750
3378,121.093750
3379,121.093750
3380,121.093750
3381,121.093750
3382,121.093750
3383,117.187500
3384,117.187500
3385,117.187500
3386,117.187500
3387,117.187500
3388,117.187500
3389,117.187500
3390,117.187500
3391,117.187500
3392,117.187500
3393,113.281250
3394,113.281250
3395,113.281250
3396,113.281250
3397,113.281250
3398,113.281250
3399,113.281250
3400,109.375000
3401,109.375000
3402,109.375000
3403,109.375000
3404,109.375000
3405,109.375000
3406,105.468750
3407,109.375000
3408,105.468750
3409,105.468750
3410,105.468750
3411,105.468750
3412,105.468750
3413,105.468750
3414,101.562500
3415,101.562500
3416,101.562500
3417,101.562500
3418,101.562500
3419,97.656250
3420,97.656250
3421,97.656250
3422,97.656250
3423,97.656250
3424,97.656250
3425,93.750000
3426,93.750000
3427,93.750000
3428,93.750000
3429,93.750000
3430,93.750000
3431,93.750000
3432,89.843750
3433,89.843750
3434,85.937500
3435,89.843750
3436,85.937500
3437,85.937500
3438,85.937500
3439,85.937500
3440,85.937500
3441,85.937500
3442,82.031250
3443,82.031250
3444,82.031250
3445,82.031250
3446,78.125000
3447,78.125000
3448,78.125000
3449,78.125000
3450,78.125000
3451,74.218750
3452,74.218750
3453,74.218750
3454,74.218750
3455,74.218750
3456,74.218750
3457,70.312500
3458,70.312500
3459,70.312500
3460,70.312500
3461,66.406250
3462,66.406250
3463,66.406250
3464,66.406250
3465,66.406250
3466,62.500000
3467,62.500000
3468,62.500000
3469,62.500000
3470,58.593750
3471,58.593750
3472,58.593750
3473,58.593750
3474,54.687500
3475,54.687500
3476,54.687500
3477,54.687500
3478,54.687500
3479,50.781250
3480,50.781250
3481,50.781250
3482,50.781250
3483,50.781250
3484,46.875000
3485,46.875000
3486,46.875000
3487,46.875000
3488,42.968750
3489,42.968750
3490,42.968750
3491,39.062500
3492,39.062500
3493,39.062500
3494,39.062500
3495,39.062500
3496,35.156250
3497,35.156250
3498,35.156250
3499,35.156250
3500,31.250000
3501,31.250000
3502,31.250000
3503,31.250000
3504,27.343750
3505,27.343750
3506,27.343750
3507,27.343750
3508,23.437500
3509,23.437500
3510,23.437500
3511,23.437500
3512,19.531250
3513,19.531250
3514,19.531250
3515,19.531250
3516,15.625000
3517,15.625000
3518,15.625000
3519,15.625000
3520,11.718750
3521,11.718750
3522,11.718750
3523,11.718750
3524,7.812500
3525,7.812500
3526,7.812500
3527,3.906250
3528,3.906250
3529,3.906250
3530,3.906250
3531,3.906250
3532,0.000000
3533,0.000000
3534,0.000000
3535,0.000000
3536,-3.906250
3537,-3.906250
3538,-3.906250
3539,-7.812500
3540,-7.812500
3541,-7.812500
3542,-11.718750
3543,-11.718750
3544,-11.718750
3545,-11.718750
3546,-15.625000
3547,-15.625000
3548,-15.625000
3549,-15.625000
3550,-19.531250
3551,-19.531250
3552,-19.531250
3553,-23.437500
3554,-23.437500
3555,-23.437500
3556,-23.437500
3557,-27.343750
3558,-27.343750
3559,-27.343750
3560,-31.250000
3561,-31.250000
3562,-31.250000
3563,-31.250000
3564,-31.250000
3565,-35.156250
3566,-35.156250
3567,-35.156250
3568,-39.062500
3569,-39.062500
3570,-39.062500
3571,-42.968750
3572,-42.968750
3573,-42.968750
3574,-42.968750
3575,-42.968750
3576,-46.875000
3577,-46.875000
3578,-50.781250
3579,-50.781250
3580,-50.781250
3581,-50.781250
3582,-54.687500
3583,-54.687500
3584,-54.687500
3585,-54.687500
3586,-58.593750
3587,-58.593750
3588,-58.593750
3589,-58.593750
3590,-62.500000
3591,-62.500000
3592,-62.500000
3593,-62.500000
3594,-66.406250
3595,-66.406250
3596,-66.406250
3597,-70.312500
3598,-70.312500
3599,-70.312500
3600,-74.218750
3601,-74.218750
3602,-74.218750
3603,-74.218750
3604,-74.218750
3605,-78.125000
3606,-78.125000
3607,-78.125000
3608,-82.031250
3609,-82.031250
3610,-82.031250
3611,-82.031250
3612,-82.031250
3613,-85.937500
3614,-85.937500
3615,-85.937500
3616,-89.843750
3617,-89.843750
3618,-89.843750
3619,-89.843750
3620,-93.750000
3621,-93.750000
3622,-93.750000
3623,-93.750000
3624,-97.656250
3625,-97.656250
3626,-97.656250
3627,-97.656250
3628,-97.656250
3629,-101.562500
3630,-101.562500
3631,-101.562500
3632,-105.468750
3633,-105.468750
3634,-105.468750
3635,-105.468750
3636,-105.468750
3637,-109.375000
3638,-109.375000
3639,-109.375000
3640,-109.375000
3641,-109.375000
3642,-113.281250
3643,-113.281250
3644,-113.281250
3645,-117.187500
3646,-117.187500
3647,-117.187500
3648,-117.187500
3649,-117.187500
3650,-121.093750
3651,-121.093750
3652,-121.093750
3653,-121.093750
3654,-125.000000
3655,-121.093750
3656,-125.000000
3657,-125.000000
3658,-125.000000
3659,-128.906250
3660,-128.906250
3661,-128.906250
3662,-128.906250
3663,-128.906250
3664,-132.812500
3665,-132.812500
3666,-132.812500
3667,-132.812500
3668,-132.812500
3669,-136.718750
3670,-136.718750
3671,-136.718750
3672,-136.718750
3673,-136.718750
3674,-140.625000
3675,-140.625000
3676,-140.625000
3677,-140.625000
3678,-140.625000
3679,-144.531250
3680,-144.531250
3681,-144.531250
3682,-144.531250
3683,-144.531250
3684,-148.437500
3685,-148.437500
3686,-148.437500
3687,-148.437500
3688,-148.437500
3689,-148.437500
3690,-152.343750
3691,-152.343750
3692,-152.343750
3693,-152.343750
3694,-152.343750
3695,-152.343750
3696,-156.250000
3697,-156.250000
3698,-156.250000
3699,-156.250000
3700,-156.250000
3701,-156.250000
3702,-160.156250
3703,-160.156250
3704,-160.156250
3705,-160.156250
3706,-160.156250
3707,-160.156250
3708,-160.156250
3709,-164.062500
3710,-164.062500
3711,-164.062500
3712,-164.062500
3713,-164.062500
3714,-164.062500
3715,-164.062500
3716,-164.062500
3717,-164.062500
3718,-167.968750
3719,-167.968750
3720,-167.968750
3721,-167.968750
3722,-171.875000
3723,-167.968750
3724,-167.968750
3725,-167.968750
3726,-171.875000
3727,-171.875000
3728,-171.875000
3729,-171.875000
3730,-171.875000
3731,-171.875000
3732,-171.875000
3733,-171.875000
3734,-171.875000
3735,-171.875000
3736,-175.781250
3737,-175.781250
3738,-175.781250
3739,-175.781250
3740,-175.781250
3741,-175.781250
3742,-175.781250
3743,-175.781250
3744,-175.781250
3745,-175.781250
3746,-175.781250
3747,-175.781250
3748,-179.687500
3749,-179.687500
3750,-179.687500
3751,-179.687500
3752,-179.687500
3753,-179.687500
3754,-179.687500
3755,-179.687500
3756,-179.687500
3757,-179.687500
3758,-179.687500
3759,-179.687500
3760,-179.687500
3761,-179.687500
3762,-179.687500
3763,-179.687500
3764,-179.687500
3765,-179.687500
3766,-179.687500
3767,-183.593750
3768,-183.593750
3769,-183.593750
3770,-183.593750
3771,-183.593750
3772,-179.687500
3773,-179.687500
3774,-183.593750
3775,-183.593750
3776,-183.593750
3777,-183.593750
3778,-183.593750
3779,-183.593750
3780,-183.593750
3781,-183.593750
3782,-183.593750
3783,-183.593750
3784,-183.593750
3785,-183.593750
3786,-183.593750
3787,-183.593750
3788,-183.593750
3789,-183.593750
3790,-183.593750
3791,-183.593750
3792,-183.593750
3793,-179.687500
3794,-179.687500
3795,-179.687500
3796,-179.687500
3797,-179.687500
3798,-183.593750
3799,-183.593750
3800,-183.593750
3801,-179.687500
3802,-179.687500
3803,-179.687500
3804,-179.687500
3805,-179.687500
3806,-179.687500
3807,-179.687500
3808,-179.687500
3809,-179.687500
3810,-179.687500
3811,-179.687500
3812,-179.687500
3813,-179.687500
3814,-179.687500
3815,-179.687500
3816,-179.687500
3817,-179.687500
3818,-179.687500
3819,-179.687500
3820,-179.687500
3821,-175.781250
3822,-175.781250
3823,-175.781250
3824,-175.781250
3825,-175.781250
3826,-175.781250
3827,-175.781250
3828,-175.781250
3829,-175.781250
3830,-175.781250
3831,-175.781250
3832,-171.875000
3833,-171.875000
3834,-171.875000
3835,-171.875000
3836,-171.875000
3837,-171.875000
3838,-171.875000
3839,-171.875000
3840,-171.875000
3841,-171.875000
3842,-171.875000
3843,-167.968750
3844,-167.968750
3845,-167.968750
3846,-167.968750
3847,-167.968750
3848,-167.968750
3849,-167.968750
3850,-167.968750
3851,-167.968750
3852,-164.062500
3853,-164.062500
3854,-164.062500
3855,-164.062500
3856,-164.062500
3857,-164.062500
3858,-164.062500
3859,-160.156250
3860,-160.156250
3861,-160.156250
3862,-160.156250
3863,-160.156250
3864,-160.156250
3865,-156.250000
3866,-156.250000
3867,-156.250000
3868,-156.250000
3869,-156.250000
3870,-156.250000
3871,-152.343750
3872,-156.250000
3873,-152.343750
3874,-152.343750
3875,-152.343750
3876,-152.343750
3877,-152.343750
3878,-148.437500
3879,-148.437500
3880,-148.437500
3881,-148.437500
3882,-148.437500
3883,-144.531250
3884,-144.531250
3885,-144.531250
3886,-144.531250
3887,-144.531250
3888,-144.531250
3889,-144.531250
3890,-140.625000
3891,-140.625000
3892,-140.625000
3893,-140.625000
3894,-140.625000
3895,-136.718750
3896,-136.718750
3897,-136.718750
3898,-136.718750
3899,-136.718750
3900,-132.812500
3901,-132.812500
3902,-132.812500
3903,-132.812500
3904,-128.906250
3905,-128.906250
3906,-128.906250
3907,-128.906250
3908,-128.906250
3909,-128.906250
3910,-125.000000
3911,-125.000000
3912,-125.000000
3913,-121.093750
3914,-121.093750
3915,-121.093750
3916,-121.093750
3917,-121.093750
3918,-117.187500
3919,-117.187500
3920,-117.187500
3921,-117.187500
3922,-113.281250
3923,-113.281250
3924,-113.281250
3925,-113.281250
3926,-109.375000
3927,-109.375000
3928,-109.375000
3929,-109.375000
3930,-109.375000
3931,-105.468750
3932,-105.468750
3933,-105.468750
3934,-105.468750
3935,-101.562500
3936,-101.562500
3937,-101.562500
3938,-101.562500
3939,-101.562500
3940,-97.656250
3941,-97.656250
3942,-97.656250
3943,-97.656250
3944,-93.750000
3945,-93.750000
3946,-93.750000
3947,-93.750000
3948,-89.843750
3949,-89.843750
3950,-89.843750
3951,-85.937500
3952,-85.937500
3953,-85.937500
3954,-85.937500
3955,-82.031250
3956,-82.031250
3957,-82.031250
3958,-82.031250
3959,-78.125000
3960,-78.125000
3961,-78.125000
3962,-78.125000
3963,-74.218750
3964,-74.218750
3965,-74.218750
3966,-74.218750
3967,-70.312500
3968,-70.312500
3969,-70.312500
3970,-70.312500
3971,-66.406250
3972,-66.406250
3973,-66.406250
3974,-62.500000
3975,-62.500000
3976,-62.500000
3977,-62.500000
3978,-58.593750
3979,-58.593750
3980,-58.593750
3981,-58.593750
3982,-54.687500
3983,-54.687500
3984,-54.687500
3985,-50.781250
3986,-50.781250
3987,-50.781250
3988,-50.781250
3989,-50.781250
3990,-46.875000
3991,-46.875000
3992,-46.875000
3993,-42.968750
3994,-42.968750
3995,-42.968750
3996,-39.062500
3997,-39.062500
3998,-39.062500
3999,-39.062500
4000,-35.156250
4001,-35.156250
4002,-35.156250
4003,-35.156250
4004,-31.250000
4005,-31.250000
4006,-31.250000
4007,-27.343750
4008,-27.343750
4009,-27.343750
4010,-27.343750
4011,-23.437500
4012,-23.437500
4013,-23.437500
4014,-19.531250
4015,-19.531250
4016,-19.531250
4017,-15.625000
4018,-19.531250
4019,-15.625000
4020,-15.625000
4021,-15.625000
4022,-11.718750
4023,-11.718750
4024,-11.718750
4025,-7.812500
4026,-7.812500
4027,-7.812500
4028,-7.812500
4029,-3.906250
4030,-3.906250
4031,-3.906250
4032,-3.906250
4033,0.000000
4034,0.000000
4035,0.000000
4036,0.000000
4037,3.906250
4038,3.906250
4039,3.906250
4040,3.906250
4041,7.812500
4042,7.812500
4043,7.812500
4044,11.718750
4045,11.718750
4046,11.718750
4047,15.625000
4048,11.718750
4049,15.625000
4050,15.625000
4051,19.531250
4052,19.531250
4053,19.531250
4054,19.531250
4055,19.531250
4056,23.437500
4057,23.437500
4058,23.437500
4059,23.437500
4060,27.343750
4061,27.343750
4062,27.343750
4063,31.250000
4064,31.250000
4065,31.250000
4066,31.250000
4067,31.250000
4068,35.156250
4069,35.156250
4070,35.156250
4071,39.062500
4072,39.062500
4073,39.062500
4074,39.062500
4075,39.062500
4076,42.968750
4077,42.968750
4078,42.968750
4079,42.968750
4080,46.875000
4081,46.875000
4082,46.875000
4083,46.875000
4084,50.781250
4085,50.781250
4086,50.781250
4087,50.781250
4088,50.781250
4089,54.687500
4090,54.687500
4091,54.687500
4092,54.687500
4093,58.593750
4094,58.593750
4095,58.593750
4096,58.593750
4097,58.593750
4098,62.500000
4099,62.500000
4100,62.500000
4101,62.500000
4102,66.406250
4103,66.406250
4104,66.406250
4105,66.406250
4106,70.312500
4107,70.312500
4108,70.312500
4109,70.312500
4110,70.312500
4111,70.312500
4112,74.218750
4113,74.218750
4114,74.218750
4115,78.125000
4116,78.125000
4117,78.125000
4118,78.125000
4119,78.125000
4120,78.125000
4121,82.031250
4122,82.031250
4123,82.031250
4124,82.031250
4125,82.031250
4126,82.031250
4127,85.937500
4128,82.031250
4129,85.937500
4130,85.937500
4131,85.937500
4132,89.843750
4133,89.843750
4134,89.843750
4135,89.843750
4136,89.843750
4137,89.843750
4138,93.750000
4139,97.656250
4140,93.750000
4141,93.750000
4142,97.656250
4143,97.656250
4144,97.656250
4145,97.656250
4146,97.656250
4147,97.656250
4148,97.656250
4149,101.562500
4150,101.562500
4151,101.562500
4152,101.562500
4153,101.562500
4154,101.562500
4155,105.468750
4156,105.468750
4157,105.468750
4158,105.468750
4159,105.468750
4160,105.468750
4161,109.375000
4162,109.375000
4163,109.375000
4164,109.375000
4165,109.375000
4166,109.375000
4167,109.375000
4168,109.375000
4169,113.281250
4170,113.281250
4171,113.281250
4172,113.281250
4173,113.281250
4174,113.281250
4175,113.281250
4176,113.281250
4177,117.187500
4178,117.187500
4179,117.187500
4180,117.187500
4181,117.187500
4182,117.187500
4183,121.093750
4184,121.093750
4185,121.093750
4186,121.093750
4187,121.093750
4188,121.093750
4189,121.093750
4190,121.093750
4191,125.000000
4192,125.000000
4193,125.000000
4194,125.000000
4195,125.000000
4196,125.000000
4197,125.000000
4198,125.000000
4199,125.000000
4200,125.000000
4201,125.000000
4202,128.906250
4203,128.906250
4204,128.906250
4205,128.906250
4206,128.906250
4207,128.906250
4208,128.906250
4209,128.906250
4210,128.906250
4211,128.906250
4212,128.906250
4213,132.812500
4214,128.906250
4215,132.812500
4216,132.812500
4217,132.812500
4218,132.812500
4219,132.812500
4220,132.812500
4221,132.812500
4222,132.812500
4223,132.812500
4224,132.812500
4225,136.718750
4226,132.812500
4227,132.812500
4228,136.718750
4229,136.718750
4230,136.718750
4231,136.718750
4232,136.718750
4233,136.718750
4234,136.718750
4235,136.718750
4236,136.718750
4237,136.718750
4238,136.718750
4239,136.718750
4240,136.718750
4241,136.718750
4242,136.718750
4243,136.718750
4244,136.718750
4245,136.718750
4246,136.718750
4247,140.625000
4248,136.718750
4249,140.625000
4250,140.625000
4251,140.625000
4252,140.625000
4253,140.625000
4254,140.625000
4255,140.625000
4256,140.625000
4257,140.625000
4258,140.625000
4259,140.625000
4260,140.625000
4261,140.625000
4262,140.625000
4263,140.625000
4264,140.625000
4265,140.625000
4266,140.625000
4267,140.625000
4268,140.625000
4269,140.625000
4270,140.625000
4271,140.625000
4272,140.625000
4273,140.625000
4274,140.625000
4275,140.625000
4276,140.625000
4277,140.625000
4278,140.625000
4279,140.625000
4280,140.625000
4281,140.625000
4282,140.625000
4283,140.625000
4284,140.625000
4285,140.625000
4286,140.625000
4287,140.625000
4288,140.625000
4289,140.625000
4290,140.625000
4291,140.625000
4292,140.625000
4293,140.625000
4294,140.625000
4295,140.625000
4296,140.625000
4297,140.625000
4298,140.625000
4299,140.625000
4300,140.625000
4301,140.625000
4302,140.625000
4303,140.625000
4304,140.625000
4305,140.625000
4306,140.625000
4307,140.625000
4308,136.718750
4309,140.625000
4310,140.625000
4311,140.625000
4312,136.718750
4313,136.718750
4314,136.718750
4315,136.718750
4316,136.718750
4317,136.718750
4318,136.718750
4319,136.718750
4320,136.718750
4321,136.718750
4322,136.718750
4323,136.718750
4324,136.718750
4325,136.718750
4326,136.718750
4327,136.718750
4328,136.718750
4329,136.718750
4330,132.812500
4331,136.718750
4332,132.812500
4333,132.812500
4334,132.812500
4335,132.812500
4336,132.812500
4337,132.812500
4338,132.812500
4339,132.812500
4340,132.812500
4341,132.812500
4342,132.812500
4343,132.812500
4344,128.906250
4345,128.906250
4346,128.906250
4347,128.906250
4348,128.906250
4349,128.906250
4350,128.906250
4351,128.906250
4352,128.906250
4353,128.906250
4354,128.906250
4355,128.906250
4356,125.000000
4357,125.000000
4358,125.000000
4359,125.000000
4360,125.000000
4361,125.000000
4362,125.000000
4363,125.000000
4364,125.000000
4365,121.093750
4366,121.093750
4367,121.093750
4368,121.093750
4369,121.093750
4370,121.093750
4371,121.093750
4372,121.093750
4373,121.093750
4374,117.187500
4375,117.187500
4376,117.187500
4377,117.187500
4378,117.187500
4379,117.187500
4380,117.187500
4381,117.187500
4382,113.281250
4383,113.281250
4384,113.281250
4385,113.281250
4386,113.281250
4387,113.281250
4388,113.281250
4389,109.375000
4390,109.375000
4391,109.375000
4392,109.375000
4393,109.375000
4394,109.375000
4395,109.375000
4396,105.468750
4397,105.468750
4398,105.468750
4399,105.468750
4400,105.468750
4401,105.468750
4402,105.468750
4403,105.468750
4404,101.562500
4405,101.562500
4406,101.562500
4407,101.562500
4408,101.562500
4409,101.562500
4410,97.656250
4411,97.656250
4412,97.656250
4413,97.656250
4414,97.656250
4415,93.750000
4416,93.750000
4417,93.750000
4418,93.750000
4419,93.750000
4420,93.750000
4421,93.750000
4422,89.843750
4423,89.843750
4424,89.843750
4425,89.843750
4426,85.937500
4427,85.937500
4428,85.937500
4429,85.937500
4430,85.937500
4431,85.937500
4432,82.031250
4433,82.031250
4434,82.031250
4435,82.031250
4436,78.125000
4437,78.125000
4438,78.125000
4439,78.125000
4440,78.125000
4441,78.125000
4442,78.125000
4443,78.125000
4444,74.218750
4445,74.218750
4446,70.312500
4447,70.312500
4448,70.312500
4449,70.312500
4450,70.312500
4451,70.312500
4452,66.406250
4453,66.406250
4454,66.406250
4455,66.406250
4456,62.500000
4457,62.500000
4458,62.500000
4459,62.500000
4460,62.500000
4461,58.593750
4462,58.593750
4463,58.593750
4464,58.593750
4465,54.687500
4466,54.687500
4467,54.687500
4468,54.687500
4469,50.781250
4470,50.781250
4471,50.781250
4472,50.781250
4473,50.781250
4474,46.875000
4475,46.875000
4476,46.875000
4477,42.968750
4478,42.968750
4479,42.968750
4480,42.968750
4481,39.062500
4482,39.062500
4483,39.062500
4484,39.062500
4485,39.062500
4486,35.156250
4487,35.156250
4488,35.156250
4489,31.250000
4490,31.250000
4491,31.250000
4492,31.250000
4493,27.343750
4494,27.343750
4495,27.343750
4496,27.343750
4497,27.343750
4498,23.437500
4499,23.437500
4500,23.437500
4501,23.437500
4502,19.531250
4503,19.531250
4504,19.531250
4505,19.531250
4506,15.625000
4507,15.625000
4508,15.625000
4509,11.718750
4510,11.718750
4511,11.718750
4512,11.718750
4513,7.812500
4514,7.812500
4515,7.812500
4516,7.812500
4517,3.906250
4518,3.906250
4519,3.906250
4520,3.906250
4521,0.000000
4522,0.000000
4523,0.000000
4524,0.000000
4525,-3.906250
4526,-3.906250
4527,-3.906250
4528,-3.906250
4529,-7.812500
4530,-7.812500
4531,-11.718750
4532,-11.718750
4533,-11.718750
4534,-11.718750
4535,-11.718750
4536,-15.625000
4537,-15.625000
4538,-15.625000
4539,-15.625000
4540,-19.531250
4541,-19.531250
4542,-19.531250
4543,-23.437500
4544,-23.437500
4545,-23.437500
4546,-23.437500
4547,-27.343750
4548,-27.343750
4549,-27.343750
4550,-31.250000
4551,-31.250000
4552,-31.250000
4553,-35.156250
4554,-35.156250
4555,-35.156250
4556,-39.062500
4557,-35.156250
4558,-39.062500
4559,-39.062500
4560,-39.062500
4561,-42.968750
4562,-42.968750
4563,-42.968750
4564,-42.968750
4565,-46.875000
4566,-46.875000
4567,-46.875000
4568,-50.781250
4569,-50.781250
4570,-50.781250
4571,-50.781250
4572,-50.781250
4573,-54.687500
4574,-54.687500
4575,-54.687500
4576,-54.687500
4577,-58.593750
4578,-58.593750
4579,-58.593750
4580,-62.500000
4581,-62.500000
4582,-62.500000
4583,-62.500000
4584,-66.406250
4585,-66.406250
4586,-66.406250
4587,-70.312500
4588,-70.312500
4589,-70.312500
4590,-70.312500
4591,-74.218750
4592,-74.218750
4593,-74.218750
4594,-74.218750
4595,-78.125000
4596,-78.125000
4597,-78.125000
4598,-78.125000
4599,-82.031250
4600,-82.031250
4601,-82.031250
4602,-82.031250
4603,-85.937500
4604,-85.937500
4605,-85.937500
4606,-89.843750
4607,-89.843750
4608,-89.843750
4609,-93.750000
4610,-93.750000
4611,-93.750000
4612,-93.750000
4613,-93.750000
4614,-93.750000
4615,-97.656250
4616,-97.656250
4617,-101.562500
4618,-101.562500
4619,-101.562500
4620,-101.562500
4621,-101.562500
4622,-101.562500
4623,-105.468750
4624,-105.468750
4625,-105.468750
4626,-109.375000
4627,-109.375000
4628,-109.375000
4629,-109.375000
4630,-113.281250
4631,-113.281250
4632,-113.281250
4633,-113.281250
4634,-113.281250
4635,-117.187500
4636,-117.187500
4637,-117.187500
4638,-117.187500
4639,-121.093750
4640,-121.093750
4641,-121.093750
4642,-121.093750
4643,-121.093750
4644,-125.000000
4645,-125.000000
4646,-125.000000
4647,-125.000000
4648,-125.000000
4649,-128.906250
4650,-128.906250
4651,-128.906250
4652,-128.906250
4653,-132.812500
4654,-132.812500
4655,-132.812500
4656,-132.812500
4657,-132.812500
4658,-136.718750
4659,-136.718750
4660,-136.718750
4661,-136.718750
4662,-136.718750
4663,-140.625000
4664,-140.625000
4665,-140.625000
4666,-140.625000
4667,-140.625000
4668,-140.625000
4669,-144.531250
4670,-144.531250
4671,-144.531250
4672,-144.531250
4673,-148.437500
4674,-148.437500
4675,-148.437500
4676,-148.437500
4677,-148.437500
4678,-148.437500
4679,-148.437500
4680,-148.437500
4681,-152.343750
4682,-152.343750
4683,-152.343750
4684,-152.343750
4685,-152.343750
4686,-156.250000
4687,-156.250000
4688,-156.250000
4689,-156.250000
4690,-156.250000
4691,-156.250000
4692,-156.250000
4693,-160.156250
4694,-160.156250
4695,-160.156250
4696,-160.156250
4697,-160.156250
4698,-160.156250
4699,-160.156250
4700,-160.156250
4701,-164.062500
4702,-164.062500
4703,-164.062500
4704,-164.062500
4705,-164.062500
4706,-164.062500
4707,-167.968750
4708,-164.062500
4709,-167.968750
4710,-167.968750
4711,-167.968750
4712,-167.968750
4713,-167.968750
4714,-167.968750
4715,-167.968750
4716,-167.968750
4717,-171.875000
4718,-171.875000
4719,-171.875000
4720,-171.875000
4721,-171.875000
4722,-171.875000
4723,-171.875000
4724,-171.875000
4725,-171.875000
4726,-175.781250
4727,-175.781250
4728,-175.781250
4729,-175.781250
4730,-175.781250
4731,-175.781250
4732,-175.781250
4733,-175.781250
4734,-175.781250
4735,-175.781250
4736,-175.781250
4737,-175.781250
4738,-179.687500
4739,-179.687500
4740,-179.687500
4741,-179.687500
4742,-179.687500
4743,-179.687500
4744,-179.687500
4745,-179.687500
4746,-179.687500
4747,-179.687500
4748,-179.687500
4749,-179.687500
4750,-179.687500
4751,-179.687500
4752,-179.687500
4753,-179.687500
4754,-179.687500
4755,-183.593750
4756,-183.593750
4757,-183.593750
4758,-183.593750
4759,-179.687500
4760,-183.593750
4761,-179.687500
4762,-179.687500
4763,-183.593750
4764,-183.593750
4765,-183.593750
4766,-183.593750
4767,-183.593750
4768,-183.593750
4769,-183.593750
4770,-183.593750
4771,-183.593750
4772,-183.593750
4773,-183.593750
4774,-183.593750
4775,-183.593750
4776,-183.593750
4777,-183.593750
4778,-183.593750
4779,-183.593750
4780,-183.593750
4781,-183.593750
4782,-179.687500
4783,-183.593750
4784,-183.593750
4785,-183.593750
4786,-183.593750
4787,-183.593750
4788,-183.593750
4789,-183.593750
4790,-179.687500
4791,-179.687500
4792,-179.687500
4793,-179.687500
4794,-179.687500
4795,-179.687500
4796,-179.687500
4797,-179.687500
4798,-183.593750
4799,-179.687500
4800,-179.687500
4801,-179.687500
4802,-179.687500
4803,-179.687500
4804,-179.687500
4805,-179.687500
4806,-179.687500
4807,-179.687500
4808,-179.687500
4809,-175.781250
4810,-175.781250
4811,-175.781250
4812,-175.781250
4813,-175.781250
4814,-175.781250
4815,-175.781250
4816,-175.781250
4817,-175.781250
4818,-175.781250
4819,-175.781250
4820,-175.781250
4821,-171.875000
4822,-171.875000
4823,-171.875000
4824,-171.875000
4825,-171.875000
4826,-171.875000
4827,-171.875000
4828,-171.875000
4829,-171.875000
4830,-167.968750
4831,-167.968750
4832,-167.968750
4833,-167.968750
4834,-167.968750
4835,-167.968750
4836,-167.968750
4837,-167.968750
4838,-167.968750
4839,-167.968750
4840,-164.062500
4841,-164.062500
4842,-164.062500
4843,-164.062500
4844,-164.062500
4845,-164.062500
4846,-164.062500
4847,-164.062500
4848,-164.062500
4849,-160.156250
4850,-160.156250
4851,-160.156250
4852,-160.156250
4853,-160.156250
4854,-156.250000
4855,-160.156250
4856,-156.250000
4857,-156.250000
4858,-156.250000
4859,-156.250000
4860,-156.250000
4861,-156.250000
4862,-152.343750
4863,-152.343750
4864,-152.343750
4865,-152.343750
4866,-152.343750
4867,-152.343750
4868,-148.437500
4869,-148.437500
4870,-148.437500
4871,-148.437500
4872,-148.437500
4873,-148.437500
4874,-144.531250
4875,-144.531250
4876,-144.531250
4877,-144.531250
4878,-144.531250
4879,-144.531250
4880,-140.625000
4881,-140.625000
4882,-140.625000
4883,-136.718750
4884,-136.718750
4885,-136.718750
4886,-136.718750
4887,-136.718750
4888,-136.718750
4889,-136.718750
4890,-132.812500
4891,-132.812500
4892,-132.812500
4893,-132.812500
4894,-128.906250
4895,-132.812500
4896,-128.906250
4897,-128.906250
4898,-128.906250
4899,-125.000000
4900,-125.000000
4901,-125.000000
4902,-125.000000
4903,-125.000000
4904,-121.093750
4905,-121.093750
4906,-121.093750
4907,-121.093750
4908,-117.187500
4909,-117.187500
4910,-117.187500
4911,-117.187500
4912,-117.187500
4913,-113.281250
4914,-113.281250
4915,-113.281250
4916,-113.281250
4917,-109.375000
4918,-109.375000
4919,-109.375000
4920,-109.375000
4921,-105.468750
4922,-105.468750
4923,-105.468750
4924,-105.468750
4925,-101.562500
4926,-101.562500
4927,-101.562500
4928,-101.562500
4929,-101.562500
4930,-97.656250
4931,-97.656250
4932,-97.656250
4933,-93.750000
4934,-93.750000
4935,-93.750000
4936,-93.750000
4937,-89.843750
4938,-89.843750
4939,-89.843750
4940,-89.843750
4941,-85.937500
4942,-85.937500
4943,-85.937500
4944,-82.031250
4945,-82.031250
4946,-82.031250
4947,-82.031250
4948,-82.031250
4949,-78.125000
4950,-78.125000
4951,-78.125000
4952,-74.218750
4953,-74.218750
4954,-74.218750
4955,-74.218750
4956,-70.312500
4957,-70.312500
4958,-70.312500
4959,-70.312500
4960,-70.312500
4961,-66.406250
4962,-66.406250
4963,-62.500000
4964,-62.500000
4965,-62.500000
4966,-62.500000
4967,-58.593750
4968,-58.593750
4969,-58.593750
4970,-58.593750
4971,-54.687500
4972,-54.687500
4973,-54.687500
4974,-54.687500
4975,-50.781250
4976,-50.781250
4977,-46.875000
4978,-46.875000
4979,-46.875000
4980,-46.875000
4981,-46.875000
4982,-46.875000
4983,-42.968750
4984,-42.968750
4985,-42.968750
4986,-39.062500
4987,-39.062500
4988,-39.062500
4989,-35.156250
4990,-35.156250
4991,-31.250000
4992,-35.156250
4993,-35.156250
4994,-31.250000
4995,-31.250000
4996,-31.250000
4997,-31.250000
4998,-31.250000
4999,-27.343750
5000,-27.343750
5001,-23.437500
5002,-23.437500
5003,-23.437500
5004,-23.437500
5005,-19.531250
5006,-19.531250
5007,-19.531250
5008,-15.625000
5009,-15.625000
5010,-15.625000
5011,-15.625000
5012,-11.718750
5013,-11.718750
5014,-11.718750
5015,-11.718750
5016,-7.812500
5017,-7.812500
5018,-7.812500
5019,-3.906250
5020,-3.906250
5021,-3.906250
5022,-3.906250
5023,0.000000
5024,0.000000
5025,0.000000
5026,0.000000
5027,3.906250
5028,3.906250
5029,7.812500
5030,3.906250
5031,7.812500
5032,7.812500
5033,7.812500
5034,7.812500
5035,11.718750
5036,11.718750
5037,11.718750
5038,15.625000
5039,15.625000
5040,15.625000
5041,15.625000
5042,19.531250
5043,19.531250
5044,19.531250
5045,19.531250
5046,19.531250
5047,23.437500
5048,23.437500
5049,27.343750
5050,27.343750
5051,27.343750
5052,27.343750
5053,27.343750
5054,27.343750
5055,31.250000
5056,31.250000
5057,31.250000
5058,35.156250
5059,35.156250
5060,35.156250
5061,39.062500
5062,39.062500
5063,39.062500
5064,39.062500
5065,39.062500
5066,42.968750
5067,42.968750
5068,42.968750
5069,42.968750
5070,46.875000
5071,46.875000
5072,46.875000
5073,46.875000
5074,50.781250
5075,50.781250
5076,50.781250
5077,50.781250
5078,50.781250
5079,54.687500
5080,54.687500
5081,54.687500
5082,54.687500
5083,58.593750
5084,58.593750
5085,58.593750
5086,58.593750
5087,58.593750
5088,62.500000
5089,62.500000
5090,62.500000
5091,66.406250
5092,62.500000
5093,66.406250
5094,66.406250
5095,66.406250
5096,70.312500
5097,70.312500
5098,70.312500
5099,70.312500
5100,70.312500
5101,74.218750
5102,74.218750
5103,74.218750
5104,74.218750
5105,74.218750
5106,78.125000
5107,78.125000
5108,78.125000
5109,78.125000
5110,78.125000
5111,82.031250
5112,82.031250
5113,82.031250
5114,82.031250
5115,82.031250
5116,82.031250
5117,85.937500
5118,85.937500
5119,85.937500
5120,85.937500
5121,89.843750
5122,89.843750
5123,89.843750
5124,89.843750
5125,89.843750
5126,89.843750
5127,93.750000
5128,93.750000
5129,93.750000
5130,93.750000
5131,93.750000
5132,93.750000
5133,97.656250
5134,97.656250
5135,97.656250
5136,97.656250
5137,97.656250
5138,101.562500
5139,101.562500
5140,101.562500
5141,101.562500
5142,101.562500
5143,101.562500
5144,101.562500
5145,105.468750
5146,105.468750
5147,105.468750
5148,105.468750
5149,105.468750
5150,105.468750
5151,105.468750
5152,109.375000
5153,109.375000
5154,109.375000
5155,109.375000
5156,109.375000
5157,109.375000
5158,109.375000
5159,113.281250
5160,113.281250
5161,113.281250
5162,113.281250
5163,113.281250
5164,113.281250
5165,113.281250
5166,113.281250
5167,117.187500
5168,117.187500
5169,117.187500
5170,117.187500
5171,117.187500
5172,117.187500
5173,117.187500
5174,117.187500
5175,121.093750
5176,117.187500
5177,121.093750
5178,121.093750
5179,121.093750
5180,121.093750
5181,121.093750
5182,121.093750
5183,125.000000
5184,125.000000
5185,125.000000
5186,125.000000
5187,125.000000
5188,125.000000
5189,125.000000
5190,125.000000
5191,125.000000
5192,128.906250
5193,128.906250
5194,128.906250
5195,128.906250
5196,128.906250
5197,128.906250
5198,128.906250
5199,128.906250
5200,128.906250
5201,128.906250
5202,128.906250
5203,128.906250
5204,128.906250
5205,132.812500
5206,132.812500
5207,132.812500
5208,132.812500
5209,132.812500
5210,132.812500
5211,132.812500
5212,132.812500
5213,132.812500
5214,132.812500
5215,132.812500
5216,132.812500
5217,136.718750
5218,136.718750
5219,136.718750
5220,136.718750
5221,136.718750
5222,136.718750
5223,136.718750
5224,136.718750
5225,136.718750
5226,136.718750
5227,136.718750
5228,136.718750
5229,140.625000
5230,136.718750
5231,136.718750
5232,136.718750
5233,136.718750
5234,136.718750
5235,140.625000
5236,136.718750
5237,136.718750
5238,136.718750
5239,140.625000
5240,140.625000
5241,140.625000
5242,140.625000
5243,140.625000
5244,140.625000
5245,140.625000
5246,140.625000
5247,140.625000
5248,140.625000
5249,140.625000
5250,140.625000
5251,140.625000
5252,140.625000
5253,140.625000
5254,140.625000
5255,140.625000
5256,140.625000
5257,140.625000
5258,140.625000
5259,140.625000
5260,140.625000
5261,140.625000
5262,140.625000
5263,140.625000
5264,140.625000
5265,140.625000
5266,140.625000
5267,140.625000
5268,140.625000
5269,140.625000
5270,140.625000
5271,140.625000
5272,140.625000
5273,140.625000
5274,140.625000
5275,140.625000
5276,140.625000
5277,140.625000
5278,140.625000
5279,140.625000
5280,140.625000
5281,140.625000
5282,140.625000
5283,140.625000
5284,140.625000
5285,140.625000
5286,140.625000
5287,140.625000
5288,140.625000
5289,140.625000
5290,140.625000
5291,140.625000
5292,140.625000
5293,140.625000
5294,140.625000
5295,140.625000
5296,140.625000
5297,140.625000
5298,140.625000
5299,140.625000
5300,136.718750
5301,136.718750
5302,136.718750
5303,136.718750
5304,136.718750
5305,136.718750
5306,136.718750
5307,136.718750
5308,136.718750
5309,136.718750
5310,136.718750
5311,136.718750
5312,136.718750
5313,136.718750
5314,136.718750
5315,136.718750
5316,136.718750
5317,136.718750
5318,136.718750
5319,136.718750
5320,136.718750
5321,136.718750
5322,132.812500
5323,132.812500
5324,132.812500
5325,132.812500
5326,132.812500
5327,132.812500
5328,132.812500
5329,132.812500
5330,132.812500
5331,132.812500
5332,132.812500
5333,132.812500
5334,128.906250
5335,128.906250
5336,128.906250
5337,128.906250
5338,128.906250
5339,128.906250
5340,128.906250
5341,128.906250
5342,128.906250
5343,128.906250
5344,125.000000
5345,128.906250
5346,125.000000
5347,125.000000
5348,125.000000
5349,125.000000
5350,125.000000
5351,125.000000
5352,125.000000
5353,125.000000
5354,125.000000
5355,125.000000
5356,121.093750
5357,121.093750
5358,121.093750
5359,121.093750
5360,121.093750
5361,121.093750
5362,121.093750
5363,117.187500
5364,117.187500
5365,117.187500
5366,117.187500
5367,117.187500
5368,117.187500
5369,117.187500
5370,117.187500
5371,113.281250
5372,113.281250
5373,113.281250
5374,113.281250
5375,113.281250
5376,113.281250
5377,113.281250
5378,113.281250
5379,109.375000
5380,109.375000
5381,109.375000
5382,109.375000
5383,113.281250
5384,109.375000
5385,105.468750
5386,105.468750
5387,105.468750
5388,105.468750
5389,105.468750
5390,105.468750
5391,101.562500
5392,101.562500
5393,101.562500
5394,101.562500
5395,101.562500
5396,101.562500
5397,101.562500
5398,97.656250
5399,97.656250
5400,97.656250
5401,97.656250
5402,97.656250
5403,93.750000
5404,93.750000
5405,93.750000
5406,93.750000
5407,93.750000
5408,93.750000
5409,93.750000
5410,93.750000
5411,89.843750
5412,89.843750
5413,89.843750
5414,85.937500
5415,85.937500
5416,85.937500
5417,85.937500
5418,85.937500
5419,85.937500
5420,85.937500
5421,82.031250
5422,82.031250
5423,82.031250
5424,82.031250
5425,78.125000
5426,78.125000
5427,78.125000
5428,78.125000
5429,78.125000
5430,78.125000
5431,74.218750
5432,74.218750
5433,74.218750
5434,74.218750
5435,74.218750
5436,70.312500
5437,70.312500
5438,70.312500
5439,70.312500
5440,70.312500
5441,66.406250
5442,66.406250
5443,66.406250
5444,66.406250
5445,62.500000
5446,62.500000
5447,62.500000
5448,62.500000
5449,62.500000
5450,58.593750
5451,58.593750
5452,58.593750
5453,58.593750
5454,58.593750
5455,54.687500
5456,54.687500
5457,54.687500
5458,50.781250
5459,50.781250
5460,50.781250
5461,50.781250
5462,50.781250
5463,46.875000
5464,46.875000
5465,46.875000
5466,46.875000
5467,46.875000
5468,42.968750
5469,42.968750
5470,42.968750
5471,39.062500
5472,39.062500
5473,39.062500
5474,39.062500
5475,35.156250
5476,35.156250
5477,35.156250
5478,35.156250
5479,35.156250
5480,31.250000
5481,31.250000
5482,31.250000
5483,27.343750
5484,27.343750
5485,27.343750
5486,27.343750
5487,27.343750
5488,23.437500
5489,23.437500
5490,23.437500
5491,19.531250
5492,19.531250
5493,19.531250
5494,19.531250
5495,15.625000
5496,15.625000
5497,15.625000
5498,15.625000
5499,11.718750
5500,11.718750
5501,11.718750
5502,11.718750
5503,7.812500
5504,7.812500
5505,7.812500
5506,3.906250
5507,3.906250
5508,3.906250
5509,3.906250
5510,3.906250
5511,0.000000
5512,0.000000
5513,-3.906250
5514,-3.906250
5515,-3.906250
5516,-3.906250
5517,-3.906250
5518,-7.812500
5519,-7.812500
5520,-7.812500
5521,-7.812500
5522,-11.718750
5523,-11.718750
5524,-11.718750
5525,-15.625000
5526,-15.625000
5527,-15.625000
5528,-19.531250
5529,-19.531250
5530,-19.531250
5531,-19.531250
5532,-23.437500
5533,-23.437500
5534,-23.437500
5535,-23.437500
5536,-23.437500
5537,-27.343750
5538,-27.343750
5539,-27.343750
5540,-31.250000
5541,-31.250000
5542,-35.156250
5543,-35.156250
5544,-35.156250
5545,-35.156250
5546,-35.156250
5547,-39.062500
5548,-39.062500
5549,-39.062500
5550,-39.062500
5551,-42.968750
5552,-42.968750
5553,-46.875000
5554,-46.875000
5555,-46.875000
5556,-46.875000
5557,-46.875000
5558,-46.875000
5559,-50.781250
5560,-50.781250
5561,-50.781250
5562,-54.687500
5563,-54.687500
5564,-54.687500
5565,-54.687500
5566,-58.593750
5567,-58.593750
5568,-58.593750
5569,-62.500000
5570,-62.500000
5571,-62.500000
5572,-62.500000
5573,-66.406250
5574,-66.406250
5575,-66.406250
5576,-70.312500
5577,-70.312500
5578,-70.312500
5579,-70.312500
5580,-74.218750
5581,-74.218750
5582,-74.218750
5583,-74.218750
5584,-78.125000
5585,-78.125000
5586,-78.125000
5587,-78.125000
5588,-78.125000
5589,-82.031250
5590,-82.031250
5591,-85.937500
5592,-82.031250
5593,-85.937500
5594,-85.937500
5595,-85.937500
5596,-89.843750
5597,-89.843750
5598,-89.843750
5599,-89.843750
5600,-89.843750
5601,-93.750000
5602,-93.750000
5603,-93.750000
5604,-97.656250
5605,-97.656250
5606,-97.656250
5607,-101.562500
5608,-97.656250
5609,-101.562500
5610,-101.562500
5611,-101.562500
5612,-101.562500
5613,-105.468750
5614,-105.468750
5615,-105.468750
5616,-109.375000
5617,-105.468750
5618,-109.375000
5619,-109.375000
5620,-109.375000
5621,-113.281250
5622,-113.281250
5623,-113.281250
5624,-113.281250
5625,-117.187500
5626,-117.187500
5627,-117.187500
5628,-117.187500
5629,-121.093750
5630,-121.093750
5631,-121.093750
5632,-121.093750
5633,-125.000000
5634,-125.000000
5635,-125.000000
5636,-125.000000
5637,-125.000000
5638,-125.000000
5639,-128.906250
5640,-128.906250
5641,-128.906250
5642,-132.812500
5643,-132.812500
5644,-132.812500
5645,-132.812500
5646,-132.812500
5647,-132.812500
5648,-136.718750
5649,-136.718750
5650,-136.718750
5651,-136.718750
5652,-140.625000
5653,-140.625000
5654,-140.625000
5655,-140.625000
5656,-140.625000
5657,-140.625000
5658,-144.531250
5659,-144.531250
5660,-144.531250
5661,-144.531250
5662,-144.531250
5663,-144.531250
5664,-148.437500
5665,-148.437500
5666,-148.437500
5667,-148.437500
5668,-148.437500
5669,-148.437500
5670,-152.343750
5671,-152.343750
5672,-152.343750
5673,-152.343750
5674,-152.343750
5675,-152.343750
5676,-156.250000
5677,-156.250000
5678,-156.250000
5679,-156.250000
5680,-156.250000
5681,-156.250000
5682,-160.156250
5683,-160.156250
5684,-160.156250
5685,-160.156250
5686,-160.156250
5687,-160.156250
5688,-160.156250
5689,-164.062500
5690,-164.062500
5691,-164.062500
5692,-164.062500
5693,-164.062500
5694,-164.062500
5695,-164.062500
5696,-167.968750
5697,-164.062500
5698,-164.062500
5699,-167.968750
5700,-167.968750
5701,-167.968750
5702,-167.968750
5703,-167.968750
5704,-167.968750
5705,-167.968750
5706,-171.875000
5707,-171.875000
5708,-171.875000
5709,-171.875000
5710,-171.875000
5711,-171.875000
5712,-171.875000
5713,-171.875000
5714,-171.875000
5715,-175.781250
5716,-175.781250
5717,-175.781250
5718,-171.875000
5719,-171.875000
5720,-175.781250
5721,-175.781250
5722,-175.781250
5723,-175.781250
5724,-175.781250
5725,-175.781250
5726,-175.781250
5727,-175.781250
5728,-175.781250
5729,-175.781250
5730,-179.687500
5731,-179.687500
5732,-179.687500
5733,-179.687500
5734,-179.687500
5735,-179.687500
5736,-179.687500
5737,-179.687500
5738,-179.687500
5739,-179.687500
5740,-179.687500
5741,-179.687500
5742,-179.687500
5743,-179.687500
5744,-183.593750
5745,-179.687500
5746,-179.687500
5747,-183.593750
5748,-179.687500
5749,-183.593750
5750,-183.593750
5751,-183.593750
5752,-183.593750
5753,-183.593750
5754,-183.593750
5755,-183.593750
5756,-183.593750
5757,-183.593750
5758,-183.593750
5759,-183.593750
5760,-183.593750
5761,-183.593750
5762,-183.593750
5763,-183.593750
5764,-183.593750
5765,-183.593750
5766,-183.593750
5767,-183.593750
5768,-183.593750
5769,-183.593750
5770,-183.593750
5771,-183.593750
5772,-183.593750
5773,-183.593750
5774,-179.687500
5775,-183.593750
5776,-183.593750
5777,-183.593750
5778,-183.593750
5779,-183.593750
5780,-179.687500
5781,-179.687500
5782,-179.687500
5783,-183.593750
5784,-179.687500
5785,-183.593750
5786,-179.687500
5787,-179.687500
5788,-179.687500
5789,-179.687500
5790,-179.687500
5791,-179.687500
5792,-179.687500
5793,-179.687500
5794,-179.687500
5795,-179.687500
5796,-179.687500
5797,-179.687500
5798,-179.687500
5799,-179.687500
5800,-175.781250
5801,-175.781250
5802,-175.781250
5803,-175.781250
5804,-175.781250
5805,-175.781250
5806,-175.781250
5807,-175.781250
5808,-175.781250
5809,-175.781250
5810,-175.781250
5811,-175.781250
5812,-175.781250
5813,-171.875000
5814,-171.875000
5815,-171.875000
5816,-171.875000
5817,-171.875000
5818,-171.875000
5819,-171.875000
5820,-171.875000
5821,-171.875000
5822,-167.968750
5823,-167.968750
5824,-167.968750
5825,-167.968750
5826,-167.968750
5827,-167.968750
5828,-167.968750
5829,-167.968750
5830,-167.968750
5831,-164.062500
5832,-164.062500
5833,-164.062500
5834,-164.062500
5835,-164.062500
5836,-164.062500
5837,-160.156250
5838,-164.062500
5839,-160.156250
5840,-160.156250
5841,-160.156250
5842,-160.156250
5843,-160.156250
5844,-160.156250
5845,-156.250000
5846,-156.250000
5847,-156.250000
5848,-156.250000
5849,-156.250000
5850,-152.343750
5851,-152.343750
5852,-152.343750
5853,-152.343750
5854,-152.343750
5855,-152.343750
5856,-152.343750
5857,-148.437500
5858,-148.437500
5859,-148.437500
5860,-148.437500
5861,-148.437500
5862,-148.437500
5863,-148.437500
5864,-144.531250
5865,-144.531250
5866,-144.531250
5867,-144.531250
5868,-144.531250
5869,-140.625000
5870,-140.625000
5871,-140.625000
5872,-140.625000
5873,-140.625000
5874,-136.718750
5875,-136.718750
5876,-136.718750
5877,-136.718750
5878,-132.812500
5879,-132.812500
5880,-132.812500
5881,-132.812500
5882,-132.812500
5883,-128.906250
5884,-128.906250
5885,-128.906250
5886,-128.906250
5887,-128.906250
5888,-125.000000
5889,-125.000000
5890,-125.000000
5891,-125.000000
5892,-125.000000
5893,-125.000000
5894,-121.093750
5895,-121.093750
5896,-121.093750
5897,-121.093750
5898,-117.187500
5899,-117.187500
5900,-117.187500
5901,-113.281250
5902,-113.281250
5903,-113.281250
5904,-113.281250
5905,-113.281250
5906,-113.281250
5907,-109.375000
5908,-109.375000
5909,-109.375000
5910,-105.468750
5911,-105.468750
5912,-105.468750
5913,-105.468750
5914,-105.468750
5915,-101.562500
5916,-101.562500
5917,-101.562500
5918,-101.562500
5919,-101.562500
5920,-97.656250
5921,-97.656250
5922,-97.656250
5923,-93.750000
5924,-93.750000
5925,-93.750000
5926,-93.750000
5927,-89.843750
5928,-89.843750
5929,-89.843750
5930,-89.843750
5931,-85.937500
5932,-85.937500
5933,-85.937500
5934,-85.937500
5935,-82.031250
5936,-82.031250
5937,-82.031250
5938,-82.031250
5939,-78.125000
5940,-78.125000
5941,-78.125000
5942,-74.218750
5943,-74.218750
5944,-74.218750
5945,-74.218750
5946,-70.312500
5947,-70.312500
5948,-70.312500
5949,-70.312500
5950,-70.312500
5951,-66.406250
5952,-66.406250
5953,-62.500000
5954,-62.500000
5955,-62.500000
5956,-62.500000
5957,-58.593750
5958,-58.593750
5959,-58.593750
5960,-58.593750
5961,-54.687500
5962,-54.687500
5963,-54.687500
5964,-54.687500
5965,-50.781250
5966,-50.781250
5967,-50.781250
5968,-46.875000
5969,-46.875000
5970,-46.875000
5971,-46.875000
5972,-42.968750
5973,-42.968750
5974,-42.968750
5975,-42.968750
5976,-39.062500
5977,-39.062500
5978,-39.062500
5979,-35.156250
5980,-35.156250
5981,-35.156250
5982,-35.156250
5983,-35.156250
5984,-31.250000
5985,-31.250000
5986,-27.343750
5987,-27.343750
5988,-27.343750
5989,-27.343750
5990,-23.437500
5991,-23.437500
5992,-23.437500
5993,-23.437500
5994,-19.531250
5995,-19.531250
5996,-19.531250
5997,-15.625000
5998,-15.625000
5999,-15.625000
6000,-15.625000
6001,-11.718750
6002,-11.718750
6003,-11.718750
6004,-11.718750
6005,-7.812500
6006,-7.812500
6007,-7.812500
6008,-7.812500
6009,-3.906250
6010,-3.906250
6011,-3.906250
6012,-3.906250
6013,0.000000
6014,0.000000
6015,0.000000
6016,3.906250
6017,3.906250
6018,3.906250
6019,7.812500
6020,7.812500
6021,7.812500
6022,7.812500
6023,7.812500
6024,11.718750
6025,11.718750
6026,11.718750
6027,15.625000
6028,15.625000
6029,15.625000
6030,15.625000
6031,15.625000
6032,19.531250
6033,19.531250
6034,19.531250
6035,23.437500
6036,23.437500
6037,23.437500
6038,23.437500
6039,27.343750
6040,27.343750
6041,27.343750
6042,27.343750
6043,27.343750
6044,31.250000
6045,31.250000
6046,31.250000
6047,35.156250
6048,35.156250
6049,35.156250
6050,35.156250
6051,39.062500
6052,39.062500
6053,39.062500
6054,39.062500
6055,39.062500
6056,42.968750
6057,42.968750
6058,42.968750
6059,42.968750
6060,46.875000
6061,46.875000
6062,46.875000
6063,46.875000
6064,46.875000
6065,50.781250
6066,50.781250
6067,50.781250
6068,54.687500
6069,54.687500
6070,54.687500
6071,54.687500
6072,54.687500
6073,54.687500
6074,54.687500
6075,58.593750
6076,58.593750
6077,62.500000
6078,62.500000
6079,62.500000
6080,62.500000
6081,62.500000
6082,66.406250
6083,66.406250
6084,66.406250
6085,66.406250
6086,70.312500
6087,70.312500
6088,70.312500
6089,70.312500
6090,70.312500
6091,70.312500
6092,74.218750
6093,74.218750
6094,74.218750
6095,78.125000
6096,78.125000
6097,78.125000
6098,78.125000
6099,78.125000
6100,78.125000
6101,82.031250
6102,82.031250
6103,82.031250
6104,82.031250
6105,85.937500
6106,85.937500
6107,85.937500
6108,85.937500
6109,82.031250
6110,85.937500
6111,85.937500
6112,89.843750
6113,89.843750
6114,89.843750
6115,89.843750
6116,89.843750
6117,93.750000
6118,93.750000
6119,93.750000
6120,93.750000
6121,93.750000
6122,93.750000
6123,97.656250
6124,97.656250
6125,97.656250
6126,97.656250
6127,97.656250
6128,97.656250
6129,101.562500
6130,101.562500
6131,101.562500
6132,101.562500
6133,101.562500
6134,101.562500
6135,105.468750
6136,105.468750
6137,105.468750
6138,105.468750
6139,105.468750
6140,105.468750
6141,105.468750
6142,105.468750
6143,109.375000
6144,109.375000
6145,109.375000
6146,109.375000
6147,109.375000
6148,109.375000
6149,113.281250
6150,113.281250
6151,113.281250
6152,113.281250
6153,113.281250
6154,113.281250
6155,113.281250
6156,117.187500
6157,117.187500
6158,117.187500
6159,117.187500
6160,117.187500
6161,117.187500
6162,117.187500
6163,117.187500
6164,117.187500
6165,121.093750
6166,121.093750
6167,121.093750
6168,121.093750
6169,121.093750
6170,121.093750
6171,121.093750
6172,121.093750
6173,121.093750
6174,125.000000
6175,125.000000
6176,125.000000
6177,125.000000
6178,125.000000
6179,125.000000
6180,125.000000
6181,125.000000
6182,125.000000
6183,128.906250
6184,125.000000
6185,128.906250
6186,128.906250
6187,128.906250
6188,128.906250
6189,128.906250
6190,128.906250
6191,128.906250
6192,128.906250
6193,132.812500
6194,132.812500
6195,132.812500
6196,132.812500
6197,132.812500
6198,132.812500
6199,132.812500
6200,132.812500
6201,132.812500
6202,132.812500
6203,132.812500
6204,132.812500
6205,132.812500
6206,132.812500
6207,136.718750
6208,136.718750
6209,136.718750
6210,136.718750
6211,136.718750
6212,136.718750
6213,136.718750
6214,136.718750
6215,136.718750
6216,136.718750
6217,136.718750
6218,136.718750
6219,136.718750
6220,136.718750
6221,136.718750
6222,136.718750
6223,136.718750
6224,136.718750
6225,136.718750
6226,140.625000
6227,140.625000
6228,136.718750
6229,136.718750
6230,136.718750
6231,140.625000
6232,140.625000
6233,140.625000
6234,140.625000
6235,140.625000
6236,140.625000
6237,140.625000
6238,140.625000
6239,140.625000
6240,140.625000
6241,140.625000
6242,140.625000
6243,140.625000
6244,140.625000
6245,140.625000
6246,140.625000
6247,140.625000
6248,140.625000
6249,140.625000
6250,140.625000
6251,140.625000
6252,140.625000
6253,140.625000
6254,140.625000
6255,140.625000
6256,140.625000
6257,140.625000
6258,140.625000
6259,140.625000
6260,140.625000
6261,140.625000
6262,140.625000
6263,140.625000
6264,140.625000
6265,140.625000
6266,140.625000
6267,140.625000
6268,140.625000
6269,140.625000
6270,140.625000
6271,140.625000
6272,140.625000
6273,140.625000
6274,140.625000
6275,140.625000
6276,140.625000
6277,140.625000
6278,140.625000
6279,140.625000
6280,140.625000
6281,140.625000
6282,140.625000
6283,140.625000
6284,140.625000
6285,140.625000
6286,140.625000
6287,140.625000
6288,140.625000
6289,140.625000
6290,136.718750
6291,136.718750
6292,136.718750
6293,136.718750
6294,136.718750
6295,136.718750
6296,136.718750
6297,136.718750
6298,136.718750
6299,136.718750
6300,136.718750
6301,136.718750
6302,136.718750
6303,136.718750
6304,136.718750
6305,136.718750
6306,136.718750
6307,136.718750
6308,136.718750
6309,132.812500
6310,132.812500
6311,132.812500
6312,132.812500
6313,132.812500
6314,132.812500
6315,132.812500
6316,132.812500
6317,132.812500
6318,132.812500
6319,132.812500
6320,132.812500
6321,132.812500
6322,128.906250
6323,128.906250
6324,128.906250
6325,128.906250
6326,128.906250
6327,128.906250
6328,128.906250
6329,128.906250
6330,128.906250
6331,128.906250
6332,125.000000
6333,128.906250
6334,125.000000
6335,125.000000
6336,125.000000
6337,125.000000
6338,125.000000
6339,125.000000
6340,125.000000
6341,125.000000
6342,121.093750
6343,125.000000
6344,121.093750
6345,121.093750
6346,121.093750
6347,121.093750
6348,121.093750
6349,121.093750
6350,121.093750
6351,121.093750
6352,121.093750
6353,121.093750
6354,117.187500
6355,117.187500
6356,117.187500
6357,117.187500
6358,117.187500
6359,117.187500
6360,117.187500
6361,117.187500
6362,113.281250
6363,113.281250
6364,113.281250
6365,113.281250
6366,113.281250
6367,113.281250
6368,113.281250
6369,109.375000
6370,109.375000
6371,109.375000
6372,109.375000
6373,109.375000
6374,109.375000
6375,109.375000
6376,105.468750
6377,105.468750
6378,105.468750
6379,105.468750
6380,105.468750
6381,105.468750
6382,101.562500
6383,101.562500
6384,101.562500
6385,101.562500
6386,101.562500
6387,101.562500
6388,97.656250
6389,97.656250
6390,97.656250
6391,97.656250
6392,97.656250
6393,97.656250
6394,97.656250
6395,93.750000
6396,93.750000
6397,93.750000
6398,93.750000
6399,89.843750
6400,89.843750
6401,89.843750
6402,89.843750
6403,89.843750
6404,89.843750
6405,89.843750
6406,85.937500
6407,85.937500
6408,85.937500
6409,85.937500
6410,82.031250
6411,82.031250
6412,82.031250
6413,82.031250
6414,82.031250
6415,82.031250
6416,78.125000
6417,78.125000
6418,78.125000
6419,78.125000
6420,78.125000
6421,74.218750
6422,74.218750
6423,74.218750
6424,74.218750
6425,74.218750
6426,70.312500
6427,70.312500
6428,70.312500
6429,70.312500
6430,70.312500
6431,66.406250
6432,66.406250
6433,66.406250
6434,66.406250
6435,62.500000
6436,62.500000
6437,62.500000
6438,62.500000
6439,58.593750
6440,58.593750
6441,58.593750
6442,58.593750
6443,58.593750
6444,54.687500
6445,54.687500
6446,54.687500
6447,54.687500
6448,50.781250
6449,50.781250
6450,50.781250
6451,50.781250
6452,50.781250
6453,46.875000
6454,46.875000
6455,46.875000
6456,46.875000
6457,42.968750
6458,42.968750
6459,42.968750
6460,39.062500
6461,39.062500
6462,39.062500
6463,39.062500
6464,35.156250
6465,35.156250
6466,35.156250
6467,35.156250
6468,35.156250
6469,31.250000
6470,31.250000
6471,31.250000
6472,31.250000
6473,27.343750
6474,27.343750
6475,27.343750
6476,27.343750
6477,27.343750
6478,23.437500
6479,23.437500
6480,19.531250
6481,19.531250
6482,19.531250
6483,19.531250
6484,19.531250
6485,15.625000
6486,15.625000
6487,15.625000
6488,15.625000
6489,11.718750
6490,11.718750
6491,11.718750
6492,7.812500
6493,7.812500
6494,7.812500
6495,7.812500
6496,7.812500
6497,3.906250
6498,3.906250
6499,3.906250
6500,0.000000
6501,0.000000
6502,0.000000
6503,0.000000
6504,-3.906250
6505,-3.906250
6506,-3.906250
6507,-3.906250
6508,-7.812500
6509,-7.812500
6510,-7.812500
6511,-11.718750
6512,-11.718750
6513,-11.718750
6514,-11.718750
6515,-15.625000
6516,-15.625000
6517,-15.625000
6518,-15.625000
6519,-19.531250
6520,-19.531250
6521,-19.531250
6522,-23.437500
6523,-23.437500
6524,-23.437500
6525,-23.437500
6526,-27.343750
6527,-27.343750
6528,-27.343750
6529,-27.343750
6530,-31.250000
6531,-31.250000
6532,-31.250000
6533,-31.250000
6534,-35.156250
6535,-35.156250
6536,-39.062500
6537,-39.062500
6538,-39.062500
6539,-42.968750
6540,-42.968750
6541,-42.968750
6542,-42.968750
6543,-42.968750
6544,-46.875000
6545,-46.875000
6546,-46.875000
6547,-46.875000
6548,-46.875000
6549,-50.781250
6550,-50.781250
6551,-54.687500
6552,-54.687500
6553,-54.687500
6554,-54.687500
6555,-58.593750
6556,-58.593750
6557,-58.593750
6558,-58.593750
6559,-62.500000
6560,-62.500000
6561,-62.500000
6562,-62.500000
6563,-66.406250
6564,-66.406250
6565,-66.406250
6566,-70.312500
6567,-70.312500
6568,-70.312500
6569,-70.312500
6570,-74.218750
6571,-74.218750
6572,-74.218750
6573,-74.218750
6574,-78.125000
6575,-78.125000
6576,-78.125000
6577,-78.125000
6578,-82.031250
6579,-82.031250
6580,-82.031250
6581,-82.031250
6582,-85.937500
6583,-85.937500
6584,-85.937500
6585,-85.937500
6586,-89.843750
6587,-89.843750
6588,-89.843750
6589,-89.843750
6590,-93.750000
6591,-93.750000
6592,-93.750000
6593,-97.656250
6594,-97.656250
6595,-97.656250
6596,-97.656250
6597,-101.562500
6598,-101.562500
6599,-101.562500
6600,-101.562500
6601,-105.468750
6602,-105.468750
6603,-105.468750
6604,-105.468750
6605,-105.468750
6606,-109.375000
6607,-109.375000
6608,-109.375000
6609,-109.375000
6610,-113.281250
6611,-113.281250
6612,-113.281250
6613,-113.281250
6614,-117.187500
6615,-117.187500
6616,-117.187500
6617,-117.187500
6618,-117.187500
6619,-121.093750
6620,-121.093750
6621,-121.093750
6622,-121.093750
6623,-121.093750
6624,-125.000000
6625,-125.000000
6626,-125.000000
6627,-125.000000
6628,-128.906250
6629,-128.906250
6630,-128.906250
6631,-128.906250
6632,-132.812500
6633,-132.812500
6634,-132.812500
6635,-132.812500
6636,-132.812500
6637,-132.812500
6638,-136.718750
6639,-136.718750
6640,-136.718750
6641,-136.718750
6642,-136.718750
6643,-140.625000
6644,-140.625000
6645,-140.625000
6646,-140.625000
6647,-140.625000
6648,-140.625000
6649,-144.531250
6650,-144.531250
6651,-144.531250
6652,-144.531250
6653,-144.531250
6654,-148.437500
6655,-148.437500
6656,-148.437500
6657,-148.437500
6658,-148.437500
6659,-152.343750
6660,-152.343750
6661,-152.343750
6662,-152.343750
6663,-152.343750
6664,-152.343750
6665,-152.343750
6666,-152.343750
6667,-156.250000
6668,-156.250000
6669,-156.250000
6670,-160.156250
6671,-156.250000
6672,-160.156250
6673,-160.156250
6674,-160.156250
6675,-160.156250
6676,-160.156250
6677,-160.156250
6678,-160.156250
6679,-164.062500
6680,-164.062500
6681,-164.062500
6682,-164.062500
6683,-164.062500
6684,-164.062500
6685,-164.062500
6686,-164.062500
6687,-164.062500
6688,-167.968750
6689,-167.968750
6690,-167.968750
6691,-167.968750
6692,-167.968750
6693,-167.968750
6694,-167.968750
6695,-171.875000
6696,-171.875000
6697,-171.875000
6698,-171.875000
6699,-171.875000
6700,-171.875000
6701,-171.875000
6702,-171.875000
6703,-175.781250
6704,-171.875000
6705,-171.875000
6706,-175.781250
6707,-175.781250
6708,-175.781250
6709,-175.781250
6710,-175.781250
6711,-175.781250
6712,-175.781250
6713,-175.781250
6714,-175.781250
6715,-175.781250
6716,-179.687500
6717,-175.781250
6718,-179.687500
6719,-179.687500
6720,-179.687500
6721,-179.687500
6722,-179.687500
6723,-179.687500
6724,-179.687500
6725,-179.687500
6726,-179.687500
6727,-179.687500
6728,-179.687500
6729,-179.687500
6730,-179.687500
6731,-179.687500
6732,-179.687500
6733,-179.687500
6734,-179.687500
6735,-179.687500
6736,-179.687500
6737,-183.593750
6738,-179.687500
6739,-183.593750
6740,-183.593750
6741,-179.687500
6742,-179.687500
6743,-183.593750
6744,-183.593750
6745,-183.593750
6746,-183.593750
6747,-183.593750
6748,-183.593750
6749,-183.593750
6750,-183.593750
6751,-183.593750
6752,-183.593750
6753,-183.593750
6754,-183.593750
6755,-179.687500
6756,-183.593750
6757,-183.593750
6758,-183.593750
6759,-183.593750
6760,-183.593750
6761,-183.593750
6762,-183.593750
6763,-183.593750
6764,-183.593750
6765,-183.593750
6766,-183.593750
6767,-179.687500
6768,-183.593750
6769,-183.593750
6770,-179.687500
6771,-179.687500
6772,-179.687500
6773,-179.687500
6774,-179.687500
6775,-179.687500
6776,-179.687500
6777,-179.687500
6778,-179.687500
6779,-179.687500
6780,-179.687500
6781,-179.687500
6782,-179.687500
6783,-179.687500
6784,-179.687500
6785,-179.687500
6786,-179.687500
6787,-179.687500
6788,-179.687500
6789,-175.781250
6790,-175.781250
6791,-175.781250
6792,-175.781250
6793,-175.781250
6794,-175.781250
6795,-175.781250
6796,-171.875000
6797,-175.781250
6798,-175.781250
6799,-175.781250
6800,-175.781250
6801,-175.781250
6802,-171.875000
6803,-171.875000
6804,-171.875000
6805,-171.875000
6806,-171.875000
6807,-171.875000
6808,-171.875000
6809,-171.875000
6810,-171.875000
6811,-171.875000
6812,-167.968750
6813,-167.968750
6814,-167.968750
6815,-167.968750
6816,-167.968750
6817,-167.968750
6818,-167.968750
6819,-167.968750
6820,-164.062500
6821,-164.062500
6822,-164.062500
6823,-164.062500
6824,-164.062500
6825,-164.062500
6826,-164.062500
6827,-164.062500
6828,-160.156250
6829,-160.156250
6830,-160.156250
6831,-160.156250
6832,-160.156250
6833,-160.156250
6834,-156.250000
6835,-156.250000
6836,-156.250000
6837,-156.250000
6838,-156.250000
6839,-156.250000
6840,-156.250000
6841,-156.250000
6842,-156.250000
6843,-152.343750
6844,-152.343750
6845,-152.343750
6846,-152.343750
6847,-148.437500
6848,-148.437500
6849,-148.437500
6850,-148.437500
6851,-148.437500
6852,-148.437500
6853,-144.531250
6854,-144.531250
6855,-144.531250
6856,-144.531250
6857,-140.625000
6858,-140.625000
6859,-140.625000
6860,-140.625000
6861,-140.625000
6862,-140.625000
6863,-136.718750
6864,-136.718750
6865,-136.718750
6866,-136.718750
6867,-136.718750
6868,-136.718750
6869,-132.812500
6870,-132.812500
6871,-132.812500
6872,-132.812500
6873,-132.812500
6874,-128.906250
6875,-128.906250
6876,-128.906250
6877,-128.906250
6878,-125.000000
6879,-125.000000
6880,-125.000000
6881,-125.000000
6882,-125.000000
6883,-121.093750
6884,-121.093750
6885,-121.093750
6886,-121.093750
6887,-117.187500
6888,-117.187500
6889,-117.187500
6890,-117.187500
6891,-117.187500
6892,-113.281250
6893,-113.281250
6894,-113.281250
6895,-113.281250
6896,-109.375000
6897,-109.375000
6898,-109.375000
6899,-109.375000
6900,-109.375000
6901,-105.468750
6902,-105.468750
6903,-105.468750
6904,-101.562500
6905,-101.562500
6906,-101.562500
6907,-101.562500
6908,-101.562500
6909,-97.656250
6910,-97.656250
6911,-97.656250
6912,-93.750000
6913,-93.750000
6914,-93.750000
6915,-93.750000
6916,-93.750000
6917,-89.843750
6918,-89.843750
6919,-89.843750
6920,-85.937500
6921,-85.937500
6922,-85.937500
6923,-85.937500
6924,-82.031250
6925,-82.031250
6926,-82.031250
6927,-82.031250
6928,-82.031250
6929,-78.125000
6930,-78.125000
6931,-78.125000
6932,-74.218750
6933,-74.218750
6934,-74.218750
6935,-74.218750
6936,-74.218750
6937,-70.312500
6938,-70.312500
6939,-70.312500
6940,-66.406250
6941,-66.406250
6942,-66.406250
6943,-62.500000
6944,-62.500000
6945,-62.500000
6946,-62.500000
6947,-62.500000
6948,-58.593750
6949,-58.593750
6950,-58.593750
6951,-54.687500
6952,-54.687500
6953,-54.687500
6954,-54.687500
6955,-50.781250
6956,-50.781250
6957,-50.781250
6958,-50.781250
6959,-46.875000
6960,-46.875000
6961,-46.875000
6962,-42.968750
6963,-42.968750
6964,-42.968750
6965,-42.968750
6966,-42.968750
6967,-39.062500
6968,-39.062500
6969,-39.062500
6970,-35.156250
6971,-35.156250
6972,-35.156250
6973,-31.250000
6974,-31.250000
6975,-31.250000
6976,-27.343750
6977,-27.343750
6978,-27.343750
6979,-27.343750
6980,-27.343750
6981,-23.437500
6982,-23.437500
6983,-23.437500
6984,-19.531250
6985,-19.531250
6986,-19.531250
6987,-19.531250
6988,-15.625000
6989,-15.625000
6990,-15.625000
6991,-15.625000
6992,-11.718750
6993,-11.718750
6994,-11.718750
6995,-7.812500
6996,-7.812500
6997,-7.812500
6998,-7.812500
6999,-3.906250
7000,-3.906250
7001,-3.906250
7002,-3.906250
7003,0.000000
7004,0.000000
7005,0.000000
7006,3.906250
7007,3.906250
7008,3.906250
7009,3.906250
7010,7.812500
7011,7.812500
7012,7.812500
7013,7.812500
7014,11.718750
7015,11.718750
7016,11.718750
7017,11.718750
7018,15.625000
7019,15.625000
7020,15.625000
7021,19.531250
7022,19.531250
7023,19.531250
7024,19.531250
7025,23.437500
7026,23.437500
7027,23.437500
7028,23.437500
7029,27.343750
7030,27.343750
7031,27.343750
7032,27.343750
7033,31.250000
7034,31.250000
7035,31.250000
7036,31.250000
7037,31.250000
7038,35.156250
7039,35.156250
7040,35.156250
7041,39.062500
7042,39.062500
7043,39.062500
7044,39.062500
7045,42.968750
7046,42.968750
7047,42.968750
7048,42.968750
7049,46.875000
7050,46.875000
7051,46.875000
7052,46.875000
7053,46.875000
7054,50.781250
7055,50.781250
7056,50.781250
7057,50.781250
7058,50.781250
7059,54.687500
7060,54.687500
7061,54.687500
7062,58.593750
7063,58.593750
7064,58.593750
7065,58.593750
7066,58.593750
7067,62.500000
7068,62.500000
7069,62.500000
7070,62.500000
7071,62.500000
7072,66.406250
7073,66.406250
7074,66.406250
7075,66.406250
7076,66.406250
7077,70.312500
7078,70.312500
7079,70.312500
7080,70.312500
7081,74.218750
7082,74.218750
7083,74.218750
7084,74.218750
7085,74.218750
7086,74.218750
7087,78.125000
7088,78.125000
7089,78.125000
7090,78.125000
7091,82.031250
7092,82.031250
7093,82.031250
7094,82.031250
7095,82.031250
7096,85.937500
7097,85.937500
7098,85.937500
7099,85.937500
7100,85.937500
7101,89.843750
7102,89.843750
7103,89.843750
7104,89.843750
7105,89.843750
7106,89.843750
7107,93.750000
7108,93.750000
7109,93.750000
7110,93.750000
7111,93.750000
7112,93.750000
7113,97.656250
7114,97.656250
7115,97.656250
7116,97.656250
7117,97.656250
7118,97.656250
7119,101.562500
7120,101.562500
7121,101.562500
7122,101.562500
7123,101.562500
7124,105.468750
7125,105.468750
7126,105.468750
7127,105.468750
7128,105.468750
7129,105.468750
7130,105.468750
7131,109.375000
7132,109.375000
7133,109.375000
7134,109.375000
7135,109.375000
7136,109.375000
7137,109.375000
7138,109.375000
7139,113.281250
7140,113.281250
7141,113.281250
7142,113.281250
7143,113.281250
7144,113.281250
7145,113.281250
7146,113.281250
7147,117.187500
7148,117.187500
7149,117.187500
7150,117.187500
7151,117.187500
7152,117.187500
7153,117.187500
7154,121.093750
7155,121.093750
7156,121.093750
7157,121.093750
7158,121.093750
7159,121.093750
7160,121.093750
7161,121.093750
7162,125.000000
7163,125.000000
7164,125.000000
7165,125.000000
7166,125.000000
7167,125.000000
7168,125.000000
7169,125.000000
7170,125.000000
7171,128.906250
7172,128.906250
7173,128.906250
7174,128.906250
7175,128.906250
7176,128.906250
7177,128.906250
7178,128.906250
7179,128.906250
7180,128.906250
7181,128.906250
7182,128.906250
7183,132.812500
7184,128.906250
7185,132.812500
7186,132.812500
7187,132.812500
7188,132.812500
7189,132.812500
7190,132.812500
7191,132.812500
7192,132.812500
7193,132.812500
7194,132.812500
7195,132.812500
7196,132.812500
7197,136.718750
7198,132.812500
7199,136.718750
7200,136.718750
7201,136.718750
7202,136.718750
7203,136.718750
7204,136.718750
7205,136.718750
7206,136.718750
7207,136.718750
7208,136.718750
7209,136.718750
7210,136.718750
7211,136.718750
7212,136.718750
7213,136.718750
7214,136.718750
7215,136.718750
7216,136.718750
7217,140.625000
7218,136.718750
7219,136.718750
7220,136.718750
7221,136.718750
7222,140.625000
7223,140.625000
7224,140.625000
7225,140.625000
7226,140.625000
7227,140.625000
7228,140.625000
7229,140.625000
7230,140.625000
7231,140.625000
7232,140.625000
7233,140.625000
7234,140.625000
7235,140.625000
7236,140.625000
7237,140.625000
7238,140.625000
7239,140.625000
7240,140.625000
7241,140.625000
7242,140.625000
7243,140.625000
7244,140.625000
7245,140.625000
7246,140.625000
7247,140.625000
7248,140.625000
7249,140.625000
7250,140.625000
7251,140.625000
7252,140.625000
7253,140.625000
7254,140.625000
7255,140.625000
7256,140.625000
7257,140.625000
7258,140.625000
7259,140.625000
7260,140.625000
7261,140.625000
7262,140.625000
7263,140.625000
7264,140.625000
7265,140.625000
7266,140.625000
7267,140.625000
7268,140.625000
7269,140.625000
7270,140.625000
7271,140.625000
7272,140.625000
7273,140.625000
7274,140.625000
7275,140.625000
7276,140.625000
7277,136.718750
7278,136.718750
7279,140.625000
7280,136.718750
7281,140.625000
7282,140.625000
7283,140.625000
7284,136.718750
7285,136.718750
7286,136.718750
7287,136.718750
7288,136.718750
7289,136.718750
7290,136.718750
7291,136.718750
7292,136.718750
7293,136.718750
7294,136.718750
7295,136.718750
7296,136.718750
7297,136.718750
7298,136.718750
7299,136.718750
7300,132.812500
7301,136.718750
7302,136.718750
7303,132.812500
7304,132.812500
7305,132.812500
7306,132.812500
7307,132.812500
7308,132.812500
7309,132.812500
7310,132.812500
7311,132.812500
7312,128.906250
7313,132.812500
7314,128.906250
7315,128.906250
7316,128.906250
7317,132.812500
7318,128.906250
7319,128.906250
7320,128.906250
7321,128.906250
7322,128.906250
7323,128.906250
7324,128.906250
7325,125.000000
7326,125.000000
7327,125.000000
7328,125.000000
7329,125.000000
7330,125.000000
7331,125.000000
7332,125.000000
7333,125.000000
7334,125.000000
7335,121.093750
7336,121.093750
7337,121.093750
7338,121.093750
7339,121.093750
7340,121.093750
7341,121.093750
7342,117.187500
7343,117.187500
7344,117.187500
7345,117.187500
7346,117.187500
7347,117.187500
7348,117.187500
7349,117.187500
7350,117.187500
7351,113.281250
7352,109.375000
7353,113.281250
7354,113.281250
7355,113.281250
7356,113.281250
7357,113.281250
7358,109.375000
7359,109.375000
7360,109.375000
7361,109.375000
7362,109.375000
7363,109.375000
7364,109.375000
7365,105.468750
7366,105.468750
7367,105.468750
7368,105.468750
7369,105.468750
7370,105.468750
7371,105.468750
7372,101.562500
7373,101.562500
7374,101.562500
7375,101.562500
7376,101.562500
7377,97.656250
7378,97.656250
7379,97.656250
7380,97.656250
7381,97.656250
7382,97.656250
7383,97.656250
7384,93.750000
7385,93.750000
7386,93.750000
7387,93.750000
7388,93.750000
7389,93.750000
7390,89.843750
7391,89.843750
7392,89.843750
7393,89.843750
7394,89.843750
7395,89.843750
7396,85.937500
7397,85.937500
7398,85.937500
7399,85.937500
7400,82.031250
7401,82.031250
7402,82.031250
7403,82.031250
7404,82.031250
7405,82.031250
7406,78.125000
7407,78.125000
7408,78.125000
7409,78.125000
7410,78.125000
7411,78.125000
7412,74.218750
7413,74.218750
7414,74.218750
7415,74.218750
7416,70.312500
7417,70.312500
7418,70.312500
7419,70.312500
7420,66.406250
7421,66.406250
7422,66.406250
7423,66.406250
7424,66.406250
7425,62.500000
7426,62.500000
7427,62.500000
7428,62.500000
7429,62.500000
7430,58.593750
7431,58.593750
7432,58.593750
7433,58.593750
7434,54.687500
7435,54.687500
7436,54.687500
7437,54.687500
7438,50.781250
7439,50.781250
7440,50.781250
7441,50.781250
7442,50.781250
7443,46.875000
7444,46.875000
7445,46.875000
7446,42.968750
7447,42.968750
7448,42.968750
7449,42.968750
7450,42.968750
7451,39.062500
7452,39.062500
7453,39.062500
7454,35.156250
7455,35.156250
7456,35.156250
7457,35.156250
7458,35.156250
7459,31.250000
7460,31.250000
7461,31.250000
7462,31.250000
7463,27.343750
7464,27.343750
7465,27.343750
7466,23.437500
7467,23.437500
7468,23.437500
7469,23.437500
7470,23.437500
7471,19.531250
7472,19.531250
7473,19.531250
7474,15.625000
7475,15.625000
7476,15.625000
7477,15.625000
7478,11.718750
7479,11.718750
7480,11.718750
7481,11.718750
7482,11.718750
7483,7.812500
7484,7.812500
7485,7.812500
7486,3.906250
7487,3.906250
7488,3.906250
7489,0.000000
7490,0.000000
7491,0.000000
7492,0.000000
7493,0.000000
7494,-3.906250
7495,-3.906250
7496,-3.906250
7497,-7.812500
7498,-7.812500
7499,-7.812500
7500,-7.812500
7501,-11.718750
7502,-11.718750
7503,-11.718750
7504,-11.718750
7505,-15.625000
7506,-15.625000
7507,-15.625000
7508,-19.531250
7509,-19.531250
7510,-19.531250
7511,-23.437500
7512,-23.437500
7513,-23.437500
7514,-27.343750
7515,-27.343750
7516,-27.343750
7517,-27.343750
7518,-27.343750
7519,-31.250000
7520,-31.250000
7521,-31.250000
7522,-31.250000
7523,-35.156250
7524,-35.156250
7525,-35.156250
7526,-39.062500
7527,-39.062500
7528,-39.062500
7529,-39.062500
7530,-42.968750
7531,-42.968750
7532,-42.968750
7533,-42.968750
7534,-46.875000
7535,-46.875000
7536,-46.875000
7537,-46.875000
7538,-50.781250
7539,-50.781250
7540,-50.781250
7541,-50.781250
7542,-54.687500
7543,-54.687500
7544,-54.687500
7545,-58.593750
7546,-58.593750
7547,-58.593750
7548,-62.500000
7549,-62.500000
7550,-62.500000
7551,-62.500000
7552,-62.500000
7553,-66.406250
7554,-66.406250
7555,-66.406250
7556,-66.406250
7557,-70.312500
7558,-70.312500
7559,-70.312500
7560,-70.312500
7561,-74.218750
7562,-74.218750
7563,-74.218750
7564,-78.125000
7565,-78.125000
7566,-78.125000
7567,-82.031250
7568,-82.031250
7569,-82.031250
7570,-82.031250
7571,-85.937500
7572,-85.937500
7573,-85.937500
7574,-85.937500
7575,-89.843750
7576,-89.843750
7577,-89.843750
7578,-93.750000
7579,-93.750000
7580,-93.750000
7581,-93.750000
7582,-93.750000
7583,-97.656250
7584,-97.656250
7585,-97.656250
7586,-97.656250
7587,-97.656250
7588,-101.562500
7589,-101.562500
7590,-101.562500
7591,-101.562500
7592,-105.468750
7593,-105.468750
7594,-105.468750
7595,-109.375000
7596,-109.375000
7597,-109.375000
7598,-109.375000
7599,-109.375000
7600,-113.281250
7601,-113.281250
7602,-113.281250
7603,-113.281250
7604,-117.187500
7605,-117.187500
7606,-117.187500
7607,-117.187500
7608,-117.187500
7609,-121.093750
7610,-121.093750
7611,-121.093750
7612,-125.000000
7613,-125.000000
7614,-125.000000
7615,-125.000000
7616,-125.000000
7617,-128.906250
7618,-128.906250
7619,-128.906250
7620,-128.906250
7621,-128.906250
7622,-128.906250
7623,-132.812500
7624,-132.812500
7625,-132.812500
7626,-132.812500
7627,-132.812500
7628,-136.718750
7629,-136.718750
7630,-136.718750
7631,-136.718750
7632,-140.625000
7633,-140.625000
7634,-140.625000
7635,-140.625000
7636,-144.531250
7637,-144.531250
7638,-144.531250
7639,-144.531250
7640,-144.531250
7641,-148.437500
7642,-144.531250
7643,-144.531250
7644,-148.437500
7645,-148.437500
7646,-148.437500
7647,-152.343750
7648,-152.343750
7649,-152.343750
7650,-152.343750
7651,-152.343750
7652,-152.343750
7653,-152.343750
7654,-152.343750
7655,-156.250000
7656,-156.250000
7657,-156.250000
7658,-156.250000
7659,-156.250000
7660,-156.250000
7661,-156.250000
7662,-160.156250
7663,-160.156250
7664,-160.156250
7665,-160.156250
7666,-160.156250
7667,-160.156250
7668,-160.156250
7669,-164.062500
7670,-164.062500
7671,-164.062500
7672,-164.062500
7673,-164.062500
7674,-167.968750
7675,-167.968750
7676,-167.968750
7677,-167.968750
7678,-167.968750
7679,-167.968750
7680,-167.968750
7681,-167.968750
7682,-167.968750
7683,-167.968750
7684,-167.968750
7685,-171.875000
7686,-171.875000
7687,-171.875000
7688,-171.875000
7689,-171.875000
7690,-171.875000
7691,-171.875000
7692,-171.875000
7693,-171.875000
7694,-171.875000
7695,-175.781250
7696,-175.781250
7697,-175.781250
7698,-175.781250
7699,-175.781250
7700,-175.781250
7701,-175.781250
7702,-175.781250
7703,-175.781250
7704,-175.781250
7705,-179.687500
7706,-179.687500
7707,-179.687500
7708,-179.687500
7709,-179.687500
7710,-179.687500
7711,-179.687500
7712,-179.687500
7713,-179.687500
7714,-179.687500
7715,-179.687500
7716,-179.687500
7717,-179.687500
7718,-179.687500
7719,-179.687500
7720,-179.687500
7721,-179.687500
7722,-183.593750
7723,-183.593750
7724,-183.593750
7725,-183.593750
7726,-183.593750
7727,-183.593750
7728,-183.593750
7729,-179.687500
7730,-179.687500
7731,-183.593750
7732,-183.593750
7733,-183.593750
7734,-179.687500
7735,-183.593750
7736,-183.593750
7737,-183.593750
7738,-183.593750
7739,-183.593750
7740,-183.593750
7741,-183.593750
7742,-183.593750
7743,-183.593750
7744,-183.593750
7745,-183.593750
7746,-183.593750
7747,-183.593750
7748,-183.593750
7749,-183.593750
7750,-183.593750
7751,-183.593750
7752,-183.593750
7753,-183.593750
7754,-183.593750
7755,-183.593750
7756,-183.593750
7757,-183.593750
7758,-183.593750
7759,-183.593750
7760,-179.687500
7761,-179.687500
7762,-179.687500
7763,-179.687500
7764,-179.687500
7765,-179.687500
7766,-179.687500
7767,-179.687500
7768,-179.687500
7769,-179.687500
7770,-179.687500
7771,-179.687500
7772,-179.687500
7773,-179.687500
7774,-179.687500
7775,-179.687500
7776,-179.687500
7777,-179.687500
7778,-179.687500
7779,-179.687500
7780,-175.781250
7781,-175.781250
7782,-175.781250
7783,-175.781250
7784,-175.781250
7785,-175.781250
7786,-175.781250
7787,-175.781250
7788,-175.781250
7789,-175.781250
7790,-171.875000
7791,-171.875000
7792,-171.875000
7793,-171.875000
7794,-171.875000
7795,-171.875000
7796,-171.875000
7797,-171.875000
7798,-171.875000
7799,-171.875000
7800,-171.875000
7801,-167.968750
7802,-167.968750
7803,-167.968750
7804,-167.968750
7805,-167.968750
7806,-167.968750
7807,-167.968750
7808,-167.968750
7809,-167.968750
7810,-164.062500
7811,-164.062500
7812,-164.062500
7813,-164.062500
7814,-164.062500
7815,-164.062500
7816,-164.062500
7817,-160.156250
7818,-160.156250
7819,-160.156250
7820,-160.156250
7821,-160.156250
7822,-160.156250
7823,-160.156250
7824,-160.156250
7825,-156.250000
7826,-160.156250
7827,-156.250000
7828,-156.250000
7829,-156.250000
7830,-156.250000
7831,-152.343750
7832,-152.343750
7833,-152.343750
7834,-152.343750
7835,-152.343750
7836,-152.343750
7837,-148.437500
7838,-148.437500
7839,-148.437500
7840,-148.437500
7841,-148.437500
7842,-148.437500
7843,-144.531250
7844,-144.531250
7845,-144.531250
7846,-144.531250
7847,-144.531250
7848,-140.625000
7849,-140.625000
7850,-140.625000
7851,-140.625000
7852,-136.718750
7853,-136.718750
7854,-136.718750
7855,-136.718750
7856,-136.718750
7857,-136.718750
7858,-136.718750
7859,-132.812500
7860,-132.812500
7861,-132.812500
7862,-132.812500
7863,-132.812500
7864,-128.906250
7865,-128.906250
7866,-128.906250
7867,-128.906250
7868,-125.000000
7869,-125.000000
7870,-125.000000
7871,-125.000000
7872,-125.000000
7873,-121.093750
7874,-121.093750
7875,-121.093750
7876,-121.093750
7877,-117.187500
7878,-117.187500
7879,-117.187500
7880,-117.187500
7881,-117.187500
7882,-113.281250
7883,-113.281250
7884,-113.281250
7885,-109.375000
7886,-109.375000
7887,-109.375000
7888,-109.375000
7889,-109.375000
7890,-105.468750
7891,-105.468750
7892,-105.468750
7893,-105.468750
7894,-105.468750
7895,-101.562500
7896,-101.562500
7897,-101.562500
7898,-97.656250
7899,-97.656250
7900,-97.656250
7901,-97.656250
7902,-93.750000
7903,-93.750000
7904,-93.750000
7905,-93.750000
7906,-93.750000
7907,-89.843750
7908,-89.843750
7909,-89.843750
7910,-89.843750
7911,-85.937500
7912,-85.937500
7913,-85.937500
7914,-82.031250
7915,-82.031250
7916,-82.031250
7917,-82.031250
7918,-78.125000
7919,-78.125000
7920,-78.125000
7921,-78.125000
7922,-74.218750
7923,-74.218750
7924,-74.218750
7925,-70.312500
7926,-70.312500
7927,-70.312500
7928,-70.312500
7929,-66.406250
7930,-66.406250
7931,-66.406250
7932,-66.406250
7933,-62.500000
7934,-62.500000
7935,-62.500000
7936,-62.500000
7937,-58.593750
7938,-58.593750
7939,-58.593750
7940,-54.687500
7941,-54.687500
7942,-54.687500
7943,-54.687500
7944,-50.781250
7945,-50.781250
7946,-50.781250
7947,-50.781250
7948,-46.875000
7949,-46.875000
7950,-46.875000
7951,-42.968750
7952,-42.968750
7953,-42.968750
7954,-42.968750
7955,-39.062500
7956,-39.062500
7957,-39.062500
7958,-35.156250
7959,-35.156250
7960,-35.156250
7961,-35.156250
7962,-31.250000
7963,-31.250000
7964,-31.250000
7965,-31.250000
7966,-27.343750
7967,-27.343750
7968,-27.343750
7969,-27.343750
7970,-23.437500
7971,-23.437500
7972,-23.437500
7973,-19.531250
7974,-19.531250
7975,-19.531250
7976,-19.531250
7977,-19.531250
7978,-15.625000
7979,-15.625000
7980,-15.625000
7981,-11.718750
7982,-11.718750
7983,-11.718750
7984,-11.718750
7985,-7.812500
7986,-7.812500
7987,-7.812500
7988,-7.812500
7989,-3.906250
7990,-3.906250
7991,-3.906250
7992,-3.906250
7993,0.000000
7994,0.000000
7995,0.000000
7996,3.906250
7997,3.906250
7998,3.906250
7999,3.906250
8000,7.812500
8001,7.812500
8002,7.812500
8003,11.718750
8004,11.718750
8005,11.718750
8006,11.718750
8007,11.718750
8008,15.625000
8009,15.625000
8010,15.625000
8011,19.531250
8012,19.531250
8013,19.531250
8014,19.531250
8015,23.437500
8016,23.437500
8017,23.437500
8018,23.437500
8019,27.343750
8020,27.343750
8021,27.343750
8022,31.250000
8023,31.250000
8024,31.250000
8025,27.343750
8026,31.250000
8027,35.156250
8028,35.156250
8029,35.156250
8030,35.156250
8031,39.062500
8032,39.062500
8033,39.062500
8034,39.062500
8035,42.968750
8036,42.968750
8037,42.968750
8038,42.968750
8039,46.875000
8040,46.875000
8041,46.875000
8042,50.781250
8043,50.781250
8044,50.781250
8045,50.781250
8046,50.781250
8047,50.781250
8048,54.687500
8049,54.687500
8050,54.687500
8051,58.593750
8052,58.593750
8053,58.593750
8054,58.593750
8055,58.593750
8056,62.500000
8057,62.500000
8058,62.500000
8059,62.500000
8060,62.500000
8061,66.406250
8062,66.406250
8063,66.406250
8064,66.406250
8065,66.406250
8066,70.312500
8067,70.312500
8068,70.312500
8069,70.312500
8070,74.218750
8071,74.218750
8072,74.218750
8073,74.218750
8074,74.218750
8075,74.218750
8076,78.125000
8077,78.125000
8078,78.125000
8079,78.125000
8080,82.031250
8081,82.031250
8082,82.031250
8083,82.031250
8084,82.031250
8085,85.937500
8086,85.937500
8087,85.937500
8088,85.937500
8089,85.937500
8090,85.937500
8091,89.843750
8092,89.843750
8093,89.843750
8094,89.843750
8095,89.843750
8096,89.843750
8097,93.750000
8098,93.750000
8099,93.750000
8100,93.750000
8101,97.656250
8102,97.656250
8103,97.656250
8104,97.656250
8105,97.656250
8106,97.656250
8107,97.656250
8108,101.562500
8109,101.562500
8110,101.562500
8111,101.562500
8112,101.562500
8113,101.562500
8114,105.468750
8115,105.468750
8116,105.468750
8117,101.562500
8118,105.468750
8119,105.468750
8120,105.468750
8121,109.375000
8122,109.375000
8123,109.375000
8124,109.375000
8125,109.375000
8126,109.375000
8127,109.375000
8128,113.281250
8129,109.375000
8130,113.281250
8131,113.281250
8132,113.281250
8133,113.281250
8134,113.281250
8135,113.281250
8136,113.281250
8137,117.187500
8138,117.187500
8139,117.187500
8140,117.187500
8141,117.187500
8142,117.187500
8143,117.187500
8144,121.093750
8145,121.093750
8146,121.093750
8147,121.093750
8148,121.093750
8149,121.093750
8150,121.093750
8151,121.093750
8152,125.000000
8153,121.093750
8154,125.000000
8155,125.000000
8156,125.000000
8157,125.000000
8158,125.000000
8159,125.000000
8160,125.000000
8161,125.000000
8162,125.000000
8163,128.906250
8164,128.906250
8165,128.906250
8166,128.906250
8167,128.906250
8168,128.906250
8169,128.906250
8170,128.906250
8171,132.812500
8172,128.906250
8173,132.812500
8174,132.812500
8175,132.812500
8176,132.812500
8177,132.812500
8178,132.812500
8179,132.812500
8180,132.812500
8181,132.812500
8182,132.812500
8183,132.812500
8184,132.812500
8185,132.812500
8186,132.812500
8187,136.718750
8188,136.718750
8189,136.718750
8190,136.718750
8191,136.718750
8192,136.718750
8193,136.718750
8194,136.718750
8195,136.718750
8196,136.718750
8197,136.718750
8198,136.718750
8199,136.718750
8200,136.718750
8201,136.718750
8202,140.625000
8203,140.625000
8204,136.718750
8205,136.718750
8206,136.718750
8207,140.625000
8208,140.625000
8209,140.625000
8210,140.625000
8211,140.625000
8212,140.625000
8213,140.625000
8214,140.625000
8215,140.625000
8216,140.625000
8217,140.625000
8218,140.625000
8219,140.625000
8220,140.625000
8221,140.625000
8222,140.625000
8223,140.625000
8224,140.625000
8225,140.625000
8226,140.625000
8227,140.625000
8228,140.625000
8229,140.625000
8230,140.625000
8231,140.625000
8232,140.625000
8233,140.625000
8234,140.625000
8235,140.625000
8236,140.625000
8237,140.625000
8238,140.625000
8239,140.625000
8240,140.625000
8241,140.625000
8242,140.625000
8243,140.625000
8244,140.625000
8245,140.625000
8246,140.625000
8247,140.625000
8248,140.625000
8249,140.625000
8250,140.625000
8251,140.625000
8252,140.625000
8253,140.625000
8254,140.625000
8255,140.625000
8256,140.625000
8257,140.625000
8258,140.625000
8259,140.625000
8260,140.625000
8261,140.625000
8262,140.625000
8263,140.625000
8264,140.625000
8265,140.625000
8266,140.625000
8267,140.625000
8268,140.625000
8269,140.625000
8270,136.718750
8271,136.718750
8272,136.718750
8273,136.718750
8274,136.718750
8275,136.718750
8276,136.718750
8277,136.718750
8278,136.718750
8279,136.718750
8280,136.718750
8281,136.718750
8282,136.718750
8283,136.718750
8284,136.718750
8285,136.718750
8286,136.718750
8287,136.718750
8288,132.812500
8289,136.718750
8290,132.812500
8291,132.812500
8292,132.812500
8293,132.812500
8294,132.812500
8295,132.812500
8296,132.812500
8297,132.812500
8298,132.812500
8299,132.812500
8300,132.812500
8301,132.812500
8302,132.812500
8303,128.906250
8304,128.906250
8305,128.906250
8306,128.906250
8307,128.906250
8308,128.906250
8309,128.906250
8310,128.906250
8311,128.906250
8312,128.906250
8313,128.906250
8314,125.000000
8315,128.906250
8316,125.000000
8317,125.000000
8318,125.000000
8319,125.000000
8320,125.000000
8321,125.000000
8322,125.000000
8323,125.000000
8324,121.093750
8325,121.093750
8326,121.093750
8327,121.093750
8328,121.093750
8329,121.093750
8330,121.093750
8331,121.093750
8332,121.093750
8333,117.187500
8334,117.187500
8335,117.187500
8336,117.187500
8337,117.187500
8338,117.187500
8339,117.187500
8340,117.187500
8341,117.187500
8342,113.281250
8343,113.281250
8344,113.281250
8345,113.281250
8346,113.281250
8347,113.281250
8348,113.281250
8349,109.375000
8350,109.375000
8351,109.375000
8352,109.375000
8353,109.375000
8354,109.375000
8355,105.468750
8356,105.468750
8357,105.468750
8358,105.468750
8359,105.468750
8360,105.468750
8361,105.468750
8362,101.562500
8363,101.562500
8364,101.562500
8365,101.562500
8366,101.562500
8367,101.562500
8368,97.656250
8369,97.656250
8370,97.656250
8371,97.656250
8372,97.656250
8373,97.656250
8374,93.750000
8375,93.750000
8376,93.750000
8377,93.750000
8378,93.750000
8379,93.750000
8380,89.843750
8381,89.843750
8382,89.843750
8383,89.843750
8384,85.937500
8385,85.937500
8386,85.937500
8387,85.937500
8388,85.937500
8389,85.937500
8390,82.031250
8391,82.031250
8392,82.031250
8393,82.031250
8394,82.031250
8395,78.125000
8396,78.125000
8397,78.125000
8398,78.125000
8399,78.125000
8400,74.218750
8401,74.218750
8402,74.218750
8403,74.218750
8404,74.218750
8405,70.312500
8406,70.312500
8407,70.312500
8408,70.312500
8409,70.312500
8410,66.406250
8411,66.406250
8412,66.406250
8413,66.406250
8414,66.406250
8415,62.500000
8416,62.500000
8417,62.500000
8418,58.593750
8419,58.593750
8420,58.593750
8421,58.593750
8422,58.593750
8423,58.593750
8424,54.687500
8425,54.687500
8426,54.687500
8427,54.687500
8428,54.687500
8429,50.781250
8430,50.781250
8431,50.781250
8432,46.875000
8433,46.875000
8434,46.875000
8435,46.875000
8436,46.875000
8437,42.968750
8438,42.968750
8439,42.968750
8440,42.968750
8441,39.062500
8442,39.062500
8443,39.062500
8444,39.062500
8445,35.156250
8446,35.156250
8447,35.156250
8448,35.156250
8449,31.250000
8450,31.250000
8451,31.250000
8452,31.250000
8453,27.343750
8454,27.343750
8455,27.343750
8456,27.343750
8457,27.343750
8458,23.437500
8459,23.437500
8460,19.531250
8461,19.531250
8462,19.531250
8463,19.531250
8464,19.531250
8465,15.625000
8466,15.625000
8467,15.625000
8468,15.625000
8469,11.718750
8470,11.718750
8471,11.718750
8472,11.718750
8473,7.812500
8474,7.812500
8475,3.906250
8476,3.906250
8477,3.906250
8478,3.906250
8479,3.906250
8480,0.000000
8481,0.000000
8482,0.000000
8483,0.000000
8484,-3.906250
8485,-3.906250
8486,-3.906250
8487,-7.812500
8488,-7.812500
8489,-7.812500
8490,-7.812500
8491,-11.718750
8492,-11.718750
8493,-11.718750
8494,-15.625000
8495,-15.625000
8496,-15.625000
8497,-15.625000
8498,-19.531250
8499,-19.531250
8500,-19.531250
8501,-19.531250
8502,-23.437500
8503,-23.437500
8504,-23.437500
8505,-27.343750
8506,-27.343750
8507,-27.343750
8508,-27.343750
8509,-27.343750
8510,-31.250000
8511,-31.250000
8512,-35.156250
8513,-35.156250
8514,-35.156250
8515,-35.156250
8516,-39.062500
8517,-39.062500
8518,-39.062500
8519,-39.062500
8520,-42.968750
8521,-42.968750
8522,-42.968750
8523,-42.968750
8524,-46.875000
8525,-46.875000
8526,-46.875000
8527,-46.875000
8528,-50.781250
8529,-50.781250
8530,-50.781250
8531,-54.687500
8532,-54.687500
8533,-54.687500
8534,-58.593750
8535,-58.593750
8536,-58.593750
8537,-58.593750
8538,-62.500000
8539,-62.500000
8540,-62.500000
8541,-62.500000
8542,-66.406250
8543,-66.406250
8544,-66.406250
8545,-66.406250
8546,-70.312500
8547,-70.312500
8548,-70.312500
8549,-70.312500
8550,-74.218750
8551,-74.218750
8552,-78.125000
8553,-78.125000
8554,-78.125000
8555,-78.125000
8556,-78.125000
8557,-78.125000
8558,-82.031250
8559,-82.031250
8560,-82.031250
8561,-85.937500
8562,-85.937500
8563,-85.937500
8564,-85.937500
8565,-85.937500
8566,-89.843750
8567,-89.843750
8568,-89.843750
8569,-89.843750
8570,-93.750000
8571,-93.750000
8572,-93.750000
8573,-97.656250
8574,-97.656250
8575,-97.656250
8576,-97.656250
8577,-97.656250
8578,-101.562500
8579,-101.562500
8580,-101.562500
8581,-105.468750
8582,-105.468750
8583,-105.468750
8584,-105.468750
8585,-109.375000
8586,-109.375000
8587,-109.375000
8588,-109.375000
8589,-113.281250
8590,-113.281250
8591,-113.281250
8592,-113.281250
8593,-113.281250
8594,-117.187500
8595,-117.187500
8596,-117.187500
8597,-117.187500
8598,-117.187500
8599,-121.093750
8600,-121.093750
8601,-121.093750
8602,-121.093750
8603,-125.000000
8604,-125.000000
8605,-125.000000
8606,-125.000000
8607,-125.000000
8608,-128.906250
8609,-128.906250
8610,-128.906250
8611,-128.906250
8612,-132.812500
8613,-132.812500
8614,-132.812500
8615,-132.812500
8616,-132.812500
8617,-132.812500
8618,-136.718750
8619,-136.718750
8620,-136.718750
8621,-140.625000
8622,-140.625000
8623,-140.625000
8624,-140.625000
8625,-140.625000
8626,-140.625000
8627,-140.625000
8628,-144.531250
8629,-144.531250
8630,-144.531250
8631,-144.531250
8632,-144.531250
8633,-148.437500
8634,-148.437500
8635,-148.437500
8636,-148.437500
8637,-148.437500
8638,-148.437500
8639,-152.343750
8640,-152.343750
8641,-152.343750
8642,-152.343750
8643,-152.343750
8644,-152.343750
8645,-156.250000
8646,-156.250000
8647,-156.250000
8648,-156.250000
8649,-156.250000
8650,-156.250000
8651,-160.156250
8652,-160.156250
8653,-160.156250
8654,-160.156250
8655,-160.156250
8656,-160.156250
8657,-160.156250
8658,-164.062500
8659,-164.062500
8660,-164.062500
8661,-164.062500
8662,-164.062500
8663,-164.062500
8664,-164.062500
8665,-167.968750
8666,-167.968750
8667,-167.968750
8668,-167.968750
8669,-167.968750
8670,-167.968750
8671,-167.968750
8672,-167.968750
8673,-171.875000
8674,-171.875000
8675,-171.875000
8676,-171.875000
8677,-171.875000
8678,-171.875000
8679,-171.875000
8680,-171.875000
8681,-171.875000
8682,-171.875000
8683,-171.875000
8684,-175.781250
8685,-175.781250
8686,-175.781250
8687,-175.781250
8688,-175.781250
8689,-175.781250
8690,-175.781250
8691,-175.781250
8692,-175.781250
8693,-175.781250
8694,-175.781250
8695,-175.781250
8696,-179.687500
8697,-179.687500
8698,-179.687500
8699,-179.687500
8700,-179.687500
8701,-179.687500
8702,-179.687500
8703,-179.687500
8704,-179.687500
8705,-179.687500
8706,-179.687500
8707,-179.687500
8708,-179.687500
8709,-179.687500
8710,-179.687500
8711,-179.687500
8712,-183.593750
8713,-179.687500
8714,-179.687500
8715,-179.687500
8716,-179.687500
8717,-183.593750
8718,-183.593750
8719,-183.593750
8720,-183.593750
8721,-183.593750
8722,-183.593750
8723,-183.593750
8724,-183.593750
8725,-179.687500
8726,-179.687500
8727,-183.593750
8728,-183.593750
8729,-183.593750
8730,-183.593750
8731,-183.593750
8732,-183.593750
8733,-183.593750
8734,-183.593750
8735,-183.593750
8736,-183.593750
8737,-183.593750
8738,-183.593750
8739,-183.593750
8740,-183.593750
8741,-183.593750
8742,-183.593750
8743,-183.593750
8744,-183.593750
8745,-183.593750
8746,-183.593750
8747,-179.687500
8748,-183.593750
8749,-183.593750
8750,-183.593750
8751,-183.593750
8752,-179.687500
8753,-179.687500
8754,-183.593750
8755,-179.687500
8756,-179.687500
8757,-179.687500
8758,-179.687500
8759,-179.687500
8760,-179.687500
8761,-179.687500
8762,-179.687500
8763,-179.687500
8764,-179.687500
8765,-179.687500
8766,-179.687500
8767,-175.781250
8768,-179.687500
8769,-179.687500
8770,-175.781250
8771,-175.781250
8772,-175.781250
8773,-175.781250
8774,-175.781250
8775,-175.781250
8776,-175.781250
8777,-175.781250
8778,-175.781250
8779,-175.781250
8780,-175.781250
8781,-175.781250
8782,-171.875000
8783,-171.875000
8784,-171.875000
8785,-171.875000
8786,-171.875000
8787,-171.875000
8788,-171.875000
8789,-171.875000
8790,-167.968750
8791,-171.875000
8792,-167.968750
8793,-167.968750
8794,-167.968750
8795,-167.968750
8796,-167.968750
8797,-167.968750
8798,-164.062500
8799,-167.968750
8800,-164.062500
8801,-164.062500
8802,-164.062500
8803,-164.062500
8804,-164.062500
8805,-164.062500
8806,-164.062500
8807,-160.156250
8808,-160.156250
8809,-160.156250
8810,-160.156250
8811,-160.156250
8812,-160.156250
8813,-160.156250
8814,-156.250000
8815,-156.250000
8816,-156.250000
8817,-156.250000
8818,-156.250000
8819,-152.343750
8820,-152.343750
8821,-152.343750
8822,-152.343750
8823,-152.343750
8824,-152.343750
8825,-152.343750
8826,-148.437500
8827,-148.437500
8828,-148.437500
8829,-148.437500
8830,-152.343750
8831,-144.531250
8832,-144.531250
8833,-144.531250
8834,-144.531250
8835,-144.531250
8836,-144.531250
8837,-144.531250
8838,-140.625000
8839,-140.625000
8840,-140.625000
8841,-140.625000
8842,-140.625000
8843,-136.718750
8844,-136.718750
8845,-136.718750
8846,-136.718750
8847,-132.812500
8848,-132.812500
8849,-132.812500
8850,-132.812500
8851,-132.812500
8852,-128.906250
8853,-128.906250
8854,-128.906250
8855,-128.906250
8856,-128.906250
8857,-125.000000
8858,-125.000000
8859,-125.000000
8860,-125.000000
8861,-125.000000
8862,-121.093750
8863,-121.093750
8864,-121.093750
8865,-117.187500
8866,-117.187500
8867,-117.187500
8868,-117.187500
8869,-117.187500
8870,-117.187500
8871,-113.281250
8872,-113.281250
8873,-113.281250
8874,-113.281250
8875,-113.281250
8876,-109.375000
8877,-109.375000
8878,-109.375000
8879,-105.468750
8880,-105.468750
8881,-105.468750
8882,-105.468750
8883,-105.468750
8884,-101.562500
8885,-101.562500
8886,-101.562500
8887,-97.656250
8888,-97.656250
8889,-97.656250
8890,-97.656250
8891,-97.656250
8892,-97.656250
8893,-93.750000
8894,-93.750000
8895,-93.750000
8896,-89.843750
8897,-89.843750
8898,-89.843750
8899,-89.843750
8900,-85.937500
8901,-85.937500
8902,-85.937500
8903,-85.937500
8904,-82.031250
8905,-82.031250
8906,-82.031250
8907,-82.031250
8908,-78.125000
8909,-78.125000
8910,-78.125000
8911,-74.218750
8912,-74.218750
8913,-74.218750
8914,-74.218750
8915,-70.312500
8916,-70.312500
8917,-70.312500
8918,-70.312500
8919,-66.406250
8920,-66.406250
8921,-66.406250
8922,-66.406250
8923,-62.500000
8924,-62.500000
8925,-62.500000
8926,-62.500000
8927,-58.593750
8928,-58.593750
8929,-58.593750
8930,-54.687500
8931,-54.687500
8932,-54.687500
8933,-54.687500
8934,-50.781250
8935,-50.781250
8936,-50.781250
8937,-46.875000
8938,-46.875000
8939,-46.875000
8940,-46.875000
8941,-42.968750
8942,-42.968750
8943,-42.968750
8944,-42.968750
8945,-39.062500
8946,-39.062500
8947,-39.062500
8948,-35.156250
8949,-35.156250
8950,-35.156250
8951,-35.156250
8952,-31.250000
8953,-31.250000
8954,-31.250000
8955,-31.250000
8956,-27.343750
8957,-27.343750
8958,-27.343750
8959,-23.437500
8960,-23.437500
8961,-23.437500
8962,-23.437500
8963,-19.531250
8964,-19.531250
8965,-19.531250
8966,-19.531250
8967,-15.625000
8968,-15.625000
8969,-15.625000
8970,-11.718750
8971,-11.718750
8972,-11.718750
8973,-11.718750
8974,-7.812500
8975,-7.812500
8976,-7.812500
8977,-7.812500
8978,-3.906250
8979,-3.906250
8980,-3.906250
8981,0.000000
8982,0.000000
8983,0.000000
8984,0.000000
8985,3.906250
8986,3.906250
8987,3.906250
8988,3.906250
8989,3.906250
8990,7.812500
8991,7.812500
8992,7.812500
8993,11.718750
8994,11.718750
8995,11.718750
8996,11.718750
8997,15.625000
8998,15.625000
8999,15.625000
9000,15.625000
9001,19.531250
9002,19.531250
9003,19.531250
9004,23.437500
9005,23.437500
9006,23.437500
9007,23.437500
9008,27.343750
9009,27.343750
9010,27.343750
9011,27.343750
9012,27.343750
9013,31.250000
9014,31.250000
9015,31.250000
9016,35.156250
9017,35.156250
9018,35.156250
9019,35.156250
9020,39.062500
9021,39.062500
9022,39.062500
9023,39.062500
9024,39.062500
9025,42.968750
9026,42.968750
9027,42.968750
9028,42.968750
9029,46.875000
9030,46.875000
9031,46.875000
9032,46.875000
9033,50.781250
9034,50.781250
9035,50.781250
9036,54.687500
9037,54.687500
9038,54.687500
9039,54.687500
9040,54.687500
9041,54.687500
9042,58.593750
9043,58.593750
9044,58.593750
9045,58.593750
9046,58.593750
9047,62.500000
9048,62.500000
9049,62.500000
9050,62.500000
9051,66.406250
9052,66.406250
9053,66.406250
9054,66.406250
9055,70.312500
9056,70.312500
9057,70.312500
9058,70.312500
9059,70.312500
9060,70.312500
9061,74.218750
9062,74.218750
9063,74.218750
9064,74.218750
9065,78.125000
9066,78.125000
9067,78.125000
9068,78.125000
9069,82.031250
9070,82.031250
9071,82.031250
9072,82.031250
9073,82.031250
9074,82.031250
9075,85.937500
9076,85.937500
9077,85.937500
9078,85.937500
9079,85.937500
9080,89.843750
9081,89.843750
9082,89.843750
9083,89.843750
9084,89.843750
9085,93.750000
9086,93.750000
9087,93.750000
9088,93.750000
9089,93.750000
9090,93.750000
9091,93.750000
9092,97.656250
9093,97.656250
9094,97.656250
9095,97.656250
9096,97.656250
9097,101.562500
9098,97.656250
9099,101.562500
9100,101.562500
9101,101.562500
9102,101.562500
9103,101.562500
9104,105.468750
9105,105.468750
9106,105.468750
9107,105.468750
9108,105.468750
9109,109.375000
9110,109.375000
9111,109.375000
9112,109.375000
9113,109.375000
9114,109.375000
9115,109.375000
9116,109.375000
9117,113.281250
9118,113.281250
9119,113.281250
9120,113.281250
9121,113.281250
9122,113.281250
9123,113.281250
9124,117.187500
9125,117.187500
9126,117.187500
9127,117.187500
9128,117.187500
9129,117.187500
9130,117.187500
9131,117.187500
9132,117.187500
9133,121.093750
9134,121.093750
9135,121.093750
9136,121.093750
9137,121.093750
9138,121.093750
9139,121.093750
9140,121.093750
9141,121.093750
9142,125.000000
9143,125.000000
9144,125.000000
9145,125.000000
9146,125.000000
9147,125.000000
9148,125.000000
9149,125.000000
9150,125.000000
9151,128.906250
9152,125.000000
9153,128.906250
9154,128.906250
9155,128.906250
9156,128.906250
9157,128.906250
9158,128.906250
9159,128.906250
9160,128.906250
9161,128.906250
9162,128.906250
9163,128.906250
9164,128.906250
9165,132.812500
9166,132.812500
9167,132.812500
9168,132.812500
9169,132.812500
9170,132.812500
9171,132.812500
9172,132.812500
9173,132.812500
9174,132.812500
9175,136.718750
9176,136.718750
9177,136.718750
9178,136.718750
9179,136.718750
9180,136.718750
9181,136.718750
9182,136.718750
9183,136.718750
9184,136.718750
9185,136.718750
9186,136.718750
9187,136.718750
9188,136.718750
9189,136.718750
9190,136.718750
9191,136.718750
9192,136.718750
9193,140.625000
9194,140.625000
9195,140.625000
9196,140.625000
9197,140.625000
9198,140.625000
9199,140.625000
9200,140.625000
9201,140.625000
9202,140.625000
9203,140.625000
9204,136.718750
9205,140.625000
9206,140.625000
9207,140.625000
9208,140.625000
9209,140.625000
9210,140.625000
9211,140.625000
9212,140.625000
9213,140.625000
9214,140.625000
9215,140.625000
9216,140.625000
9217,140.625000
9218,140.625000
9219,140.625000
9220,140.625000
9221,140.625000
9222,140.625000
9223,140.625000
9224,140.625000
9225,140.625000
9226,140.625000
9227,140.625000
9228,140.625000
9229,140.625000
9230,140.625000
9231,140.625000
9232,140.625000
9233,140.625000
9234,140.625000
9235,140.625000
9236,140.625000
9237,140.625000
9238,140.625000
9239,140.625000
9240,140.625000
9241,140.625000
9242,140.625000
9243,140.625000
9244,140.625000
9245,140.625000
9246,140.625000
9247,140.625000
9248,140.625000
9249,140.625000
9250,140.625000
9251,140.625000
9252,140.625000
9253,140.625000
9254,140.625000
9255,140.625000
9256,140.625000
9257,140.625000
9258,140.625000
9259,140.625000
9260,136.718750
9261,136.718750
9262,136.718750
9263,136.718750
9264,136.718750
9265,136.718750
9266,136.718750
9267,136.718750
9268,136.718750
9269,136.718750
9270,136.718750
9271,136.718750
9272,136.718750
9273,136.718750
9274,136.718750
9275,136.718750
9276,136.718750
9277,136.718750
9278,136.718750
9279,132.812500
9280,132.812500
9281,132.812500
9282,132.812500
9283,136.718750
9284,132.812500
9285,132.812500
9286,132.812500
9287,132.812500
9288,132.812500
9289,132.812500
9290,132.812500
9291,132.812500
9292,128.906250
9293,128.906250
9294,128.906250
9295,128.906250
9296,128.906250
9297,128.906250
9298,128.906250
9299,128.906250
9300,128.906250
9301,128.906250
9302,128.906250
9303,128.906250
9304,125.000000
9305,125.000000
9306,125.000000
9307,125.000000
9308,125.000000
9309,125.000000
9310,125.000000
9311,125.000000
9312,121.093750
9313,121.093750
9314,121.093750
9315,121.093750
9316,121.093750
9317,121.093750
9318,121.093750
9319,121.093750
9320,121.093750
9321,117.187500
9322,117.187500
9323,117.187500
9324,117.187500
9325,117.187500
9326,117.187500
9327,117.187500
9328,117.187500
9329,117.187500
9330,113.281250
9331,113.281250
9332,113.281250
9333,113.281250
9334,113.281250
9335,113.281250
9336,113.281250
9337,113.281250
9338,109.375000
9339,109.375000
9340,109.375000
9341,109.375000
9342,109.375000
9343,109.375000
9344,109.375000
9345,105.468750
9346,105.468750
9347,105.468750
9348,105.468750
9349,105.468750
9350,105.468750
9351,101.562500
9352,101.562500
9353,101.562500
9354,101.562500
9355,101.562500
9356,101.562500
9357,101.562500
9358,101.562500
9359,97.656250
9360,97.656250
9361,97.656250
9362,97.656250
9363,97.656250
9364,97.656250
9365,93.750000
9366,93.750000
9367,93.750000
9368,93.750000
9369,93.750000
9370,89.843750
9371,89.843750
9372,89.843750
9373,89.843750
9374,89.843750
9375,89.843750
9376,85.937500
9377,85.937500
9378,85.937500
9379,85.937500
9380,82.031250
9381,82.031250
9382,82.031250
9383,82.031250
9384,82.031250
9385,82.031250
9386,78.125000
9387,78.125000
9388,78.125000
9389,74.218750
9390,74.218750
9391,74.218750
9392,74.218750
9393,74.218750
9394,74.218750
9395,74.218750
9396,70.312500
9397,70.312500
9398,70.312500
9399,66.406250
9400,66.406250
9401,66.406250
9402,66.406250
9403,66.406250
9404,62.500000
9405,62.500000
9406,62.500000
9407,62.500000
9408,58.593750
9409,58.593750
9410,58.593750
9411,58.593750
9412,58.593750
9413,58.593750
9414,54.687500
9415,54.687500
9416,54.687500
9417,50.781250
9418,50.781250
9419,50.781250
9420,50.781250
9421,46.875000
9422,46.875000
9423,46.875000
9424,46.875000
9425,46.875000
9426,46.875000
9427,42.968750
9428,42.968750
9429,42.968750
9430,39.062500
9431,39.062500
9432,39.062500
9433,39.062500
9434,39.062500
9435,35.156250
9436,35.156250
9437,35.156250
9438,31.250000
9439,31.250000
9440,31.250000
9441,31.250000
9442,31.250000
9443,27.343750
9444,27.343750
9445,27.343750
9446,23.437500
9447,23.437500
9448,23.437500
9449,23.437500
9450,23.437500
9451,19.531250
9452,19.531250
9453,19.531250
9454,19.531250
9455,15.625000
9456,15.625000
9457,11.718750
9458,11.718750
9459,11.718750
9460,11.718750
9461,11.718750
9462,7.812500
9463,7.812500
9464,7.812500
9465,7.812500
9466,3.906250
9467,3.906250
9468,3.906250
9469,0.000000
9470,0.000000
9471,0.000000
9472,0.000000
9473,-3.906250
9474,-3.906250
9475,-3.906250
9476,-3.906250
9477,-7.812500
9478,-7.812500
9479,-7.812500
9480,-7.812500
9481,-11.718750
9482,-11.718750
9483,-11.718750
9484,-11.718750
9485,-15.625000
9486,-15.625000
9487,-15.625000
9488,-19.531250
9489,-19.531250
9490,-19.531250
9491,-19.531250
9492,-23.437500
9493,-23.437500
9494,-23.437500
9495,-23.437500
9496,-27.343750
9497,-27.343750
9498,-27.343750
9499,-31.250000
9500,-31.250000
9501,-31.250000
9502,-35.156250
9503,-35.156250
9504,-35.156250
9505,-39.062500
9506,-39.062500
9507,-39.062500
9508,-39.062500
9509,-39.062500
9510,-42.968750
9511,-42.968750
9512,-42.968750
9513,-42.968750
9514,-46.875000
9515,-46.875000
9516,-46.875000
9517,-46.875000
9518,-50.781250
9519,-50.781250
9520,-54.687500
9521,-54.687500
9522,-54.687500
9523,-54.687500
9524,-54.687500
9525,-58.593750
9526,-58.593750
9527,-58.593750
9528,-62.500000
9529,-62.500000
9530,-62.500000
9531,-66.406250
9532,-66.406250
9533,-66.406250
9534,-66.406250
9535,-66.406250
9536,-70.312500
9537,-70.312500
9538,-70.312500
9539,-74.218750
9540,-74.218750
9541,-74.218750
9542,-74.218750
9543,-74.218750
9544,-78.125000
9545,-78.125000
9546,-78.125000
9547,-82.031250
9548,-82.031250
9549,-82.031250
9550,-82.031250
9551,-85.937500
9552,-85.937500
9553,-85.937500
9554,-85.937500
9555,-89.843750
9556,-89.843750
9557,-89.843750
9558,-93.750000
9559,-93.750000
9560,-93.750000
9561,-93.750000
9562,-93.750000
9563,-97.656250
9564,-97.656250
9565,-97.656250
9566,-97.656250
9567,-101.562500
9568,-101.562500
9569,-101.562500
9570,-105.468750
9571,-105.468750
9572,-105.468750
9573,-105.468750
9574,-105.468750
9575,-109.375000
9576,-109.375000
9577,-109.375000
9578,-109.375000
9579,-113.281250
9580,-113.281250
9581,-113.281250
9582,-113.281250
9583,-113.281250
9584,-117.187500
9585,-117.187500
9586,-117.187500
9587,-117.187500
9588,-121.093750
9589,-121.093750
9590,-121.093750
9591,-121.093750
9592,-125.000000
9593,-125.000000
9594,-125.000000
9595,-125.000000
9596,-125.000000
9597,-128.906250
9598,-128.906250
9599,-128.906250
9600,-128.906250
9601,-128.906250
9602,-128.906250
9603,-132.812500
9604,-132.812500
9605,-132.812500
9606,-132.812500
9607,-136.718750
9608,-136.718750
9609,-136.718750
9610,-136.718750
9611,-140.625000
9612,-140.625000
9613,-140.625000
9614,-140.625000
9615,-140.625000
9616,-140.625000
9617,-140.625000
9618,-144.531250
9619,-144.531250
9620,-144.531250
9621,-144.531250
9622,-144.531250
9623,-148.437500
9624,-148.437500
9625,-148.437500
9626,-148.437500
9627,-148.437500
9628,-152.343750
9629,-152.343750
9630,-152.343750
9631,-152.343750
9632,-152.343750
9633,-152.343750
9634,-152.343750
9635,-156.250000
9636,-156.250000
9637,-156.250000
9638,-156.250000
9639,-156.250000
9640,-160.156250
9641,-156.250000
9642,-160.156250
9643,-160.156250
9644,-160.156250
9645,-160.156250
9646,-160.156250
9647,-160.156250
9648,-164.062500
9649,-164.062500
9650,-164.062500
9651,-164.062500
9652,-164.062500
9653,-164.062500
9654,-164.062500
9655,-164.062500
9656,-167.968750
9657,-167.968750
9658,-167.968750
9659,-167.968750
9660,-167.968750
9661,-167.968750
9662,-167.968750
9663,-167.968750
9664,-171.875000
9665,-171.875000
9666,-171.875000
9667,-171.875000
9668,-171.875000
9669,-171.875000
9670,-171.875000
9671,-175.781250
9672,-175.781250
9673,-175.781250
9674,-175.781250
9675,-175.781250
9676,-175.781250
9677,-175.781250
9678,-175.781250
9679,-175.781250
9680,-175.781250
9681,-175.781250
9682,-175.781250
9683,-175.781250
9684,-175.781250
9685,-179.687500
9686,-179.687500
9687,-179.687500
9688,-179.687500
9689,-179.687500
9690,-179.687500
9691,-179.687500
9692,-179.687500
9693,-179.687500
9694,-179.687500
9695,-179.687500
9696,-179.687500
9697,-179.687500
9698,-179.687500
9699,-179.687500
9700,-179.687500
9701,-179.687500
9702,-183.593750
9703,-179.687500
9704,-183.593750
9705,-183.593750
9706,-183.593750
9707,-183.593750
9708,-183.593750
9709,-183.593750
9710,-183.593750
9711,-183.593750
9712,-183.593750
9713,-183.593750
9714,-183.593750
9715,-183.593750
9716,-183.593750
9717,-183.593750
9718,-183.593750
9719,-183.593750
9720,-183.593750
9721,-183.593750
9722,-183.593750
9723,-183.593750
9724,-183.593750
9725,-183.593750
9726,-183.593750
9727,-183.593750
9728,-183.593750
9729,-183.593750
9730,-183.593750
9731,-183.593750
9732,-183.593750
9733,-183.593750
9734,-183.593750
9735,-183.593750
9736,-183.593750
9737,-183.593750
9738,-183.593750
9739,-183.593750
9740,-183.593750
9741,-179.687500
9742,-179.687500
9743,-179.687500
9744,-179.687500
9745,-179.687500
9746,-179.687500
9747,-179.687500
9748,-179.687500
9749,-179.687500
9750,-179.687500
9751,-179.687500
9752,-179.687500
9753,-179.687500
9754,-179.687500
9755,-179.687500
9756,-179.687500
9757,-179.687500
9758,-179.687500
9759,-175.781250
9760,-175.781250
9761,-175.781250
9762,-175.781250
9763,-175.781250
9764,-175.781250
9765,-175.781250
9766,-175.781250
9767,-175.781250
9768,-175.781250
9769,-175.781250
9770,-175.781250
9771,-171.875000
9772,-171.875000
9773,-171.875000
9774,-171.875000
9775,-171.875000
9776,-171.875000
9777,-171.875000
9778,-171.875000
9779,-171.875000
9780,-171.875000
9781,-171.875000
9782,-167.968750
9783,-167.968750
9784,-167.968750
9785,-167.968750
9786,-167.968750
9787,-167.968750
9788,-167.968750
9789,-164.062500
9790,-167.968750
9791,-164.062500
9792,-164.062500
9793,-164.062500
9794,-164.062500
9795,-160.156250
9796,-160.156250
9797,-160.156250
9798,-160.156250
9799,-160.156250
9800,-160.156250
9801,-160.156250
9802,-160.156250
9803,-156.250000
9804,-156.250000
9805,-156.250000
9806,-156.250000
9807,-156.250000
9808,-156.250000
9809,-156.250000
9810,-156.250000
9811,-156.250000
9812,-152.343750
9813,-152.343750
9814,-152.343750
9815,-152.343750
9816,-148.437500
9817,-148.437500
9818,-148.437500
9819,-148.437500
9820,-148.437500
9821,-148.437500
9822,-144.531250
9823,-144.531250
9824,-144.531250
9825,-144.531250
9826,-144.531250
9827,-144.531250
9828,-140.625000
9829,-140.625000
9830,-140.625000
9831,-140.625000
9832,-140.625000
9833,-136.718750
9834,-136.718750
9835,-136.718750
9836,-136.718750
9837,-132.812500
9838,-136.718750
9839,-132.812500
9840,-132.812500
9841,-132.812500
9842,-128.906250
9843,-128.906250
9844,-128.906250
9845,-128.906250
9846,-128.906250
9847,-125.000000
9848,-125.000000
9849,-125.000000
9850,-125.000000
9851,-125.000000
9852,-121.093750
9853,-121.093750
9854,-121.093750
9855,-121.093750
9856,-117.187500
9857,-117.187500
9858,-117.187500
9859,-117.187500
9860,-117.187500
9861,-113.281250
9862,-113.281250
9863,-113.281250
9864,-113.281250
9865,-109.375000
9866,-109.375000
9867,-109.375000
9868,-109.375000
9869,-105.468750
9870,-105.468750
9871,-105.468750
9872,-105.468750
9873,-101.562500
9874,-101.562500
9875,-101.562500
9876,-101.562500
9877,-97.656250
9878,-97.656250
9879,-97.656250
9880,-97.656250
9881,-97.656250
9882,-93.750000
9883,-93.750000
9884,-93.750000
9885,-89.843750
9886,-89.843750
9887,-89.843750
9888,-89.843750
9889,-89.843750
9890,-85.937500
9891,-85.937500
9892,-85.937500
9893,-82.031250
9894,-82.031250
9895,-82.031250
9896,-82.031250
9897,-82.031250
9898,-78.125000
9899,-78.125000
9900,-78.125000
9901,-74.218750
9902,-74.218750
9903,-74.218750
9904,-70.312500
9905,-70.312500
9906,-70.312500
9907,-70.312500
9908,-70.312500
9909,-66.406250
9910,-66.406250
9911,-66.406250
9912,-66.406250
9913,-62.500000
9914,-62.500000
9915,-62.500000
9916,-58.593750
9917,-58.593750
9918,-58.593750
9919,-58.593750
9920,-54.687500
9921,-54.687500
9922,-54.687500
9923,-50.781250
9924,-50.781250
9925,-50.781250
9926,-50.781250
9927,-50.781250
9928,-46.875000
9929,-46.875000
9930,-46.875000
9931,-42.968750
9932,-42.968750
9933,-42.968750
9934,-39.062500
9935,-39.062500
9936,-39.062500
9937,-39.062500
9938,-39.062500
9939,-35.156250
9940,-35.156250
9941,-35.156250
9942,-31.250000
9943,-31.250000
9944,-31.250000
9945,-31.250000
9946,-27.343750
9947,-27.343750
9948,-27.343750
9949,-27.343750
9950,-23.437500
9951,-23.437500
9952,-19.531250
9953,-19.531250
9954,-19.531250
9955,-19.531250
9956,-19.531250
9957,-15.625000
9958,-15.625000
9959,-15.625000
9960,-15.625000
9961,-7.812500
9962,-11.718750
9963,-11.718750
9964,-11.718750
9965,-7.812500
9966,-7.812500
9967,-3.906250
9968,-3.906250
9969,-3.906250
9970,-3.906250
9971,0.000000
9972,0.000000
9973,0.000000
9974,0.000000
9975,3.906250
9976,3.906250
9977,3.906250
9978,3.906250
9979,7.812500
9980,7.812500
9981,11.718750
9982,11.718750
9983,11.718750
9984,11.718750
9985,11.718750
9986,15.625000
9987,15.625000
9988,15.625000
9989,15.625000
9990,19.531250
9991,19.531250
9992,19.531250
9993,19.531250
9994,23.437500
9995,23.437500
9996,23.437500
9997,23.437500
9998,23.437500
9999,27.343750
10000,27.343750
