Channel              :,CH1
Frequency            :,1.010kHz
Period               :,0.990ms
PK-PK                :,230.5mV
Probe attenuation    :,1X
Voltage per ADC value:,0.244141mV
Time interval        :,1.00000us

index,CH1_Voltage(mV)
1,-58.593750
2,-58.593750
3,-58.593750
4,-58.593750
5,-58.593750
6,-58.593750
7,-54.687500
8,-54.687500
9,-54.687500
10,-54.687500
11,-54.687500
12,-50.781250
13,-50.781250
14,-50.781250
15,-50.781250
16,-50.781250
17,-50.781250
18,-46.875000
19,-46.875000
20,-46.875000
21,-46.875000
22,-42.968750
23,-42.968750
24,-42.968750
25,-42.968750
26,-42.968750
27,-42.968750
28,-42.968750
29,-39.062500
30,-39.062500
31,-39.062500
32,-39.062500
33,-35.156250
34,-35.156250
35,-35.156250
36,-35.156250
37,-35.156250
38,-35.156250
39,-35.156250
40,-31.250000
41,-31.250000
42,-31.250000
43,-31.250000
44,-31.250000
45,-27.343750
46,-27.343750
47,-27.343750
48,-27.343750
49,-27.343750
50,-27.343750
51,-23.437500
52,-23.437500
53,-23.437500
54,-23.437500
55,-23.437500
56,-23.437500
57,-19.531250
58,-19.531250
59,-19.531250
60,-19.531250
61,-15.625000
62,-15.625000
63,-15.625000
64,-15.625000
65,-15.625000
66,-15.625000
67,-11.718750
68,-11.718750
69,-11.718750
70,-11.718750
71,-7.812500
72,-7.812500
73,-7.812500
74,-7.812500
75,-7.812500
76,-11.718750
77,-3.906250
78,-3.906250
79,-3.906250
80,-3.906250
81,-3.906250
82,-3.906250
83,0.000000
84,0.000000
85,0.000000
86,0.000000
87,0.000000
88,3.906250
89,3.906250
90,3.906250
91,3.906250
92,3.906250
93,7.812500
94,7.812500
95,7.812500
96,7.812500
97,7.812500
98,7.812500
99,11.718750
100,11.718750
101,11.718750
102,11.718750
103,11.718750
104,15.625000
105,15.625000
106,15.625000
107,15.625000
108,15.625000
109,15.625000
110,19.531250
111,19.531250
112,19.531250
113,19.531250
114,19.531250
115,23.437500
116,23.437500
117,23.437500
118,23.437500
119,23.437500
120,23.437500
121,27.343750
122,27.343750
123,27.343750
124,27.343750
125,27.343750
126,27.343750
127,31.250000
128,31.250000
129,31.250000
130,31.250000
131,31.250000
132,31.250000
133,35.156250
134,35.156250
135,35.156250
136,35.156250
137,35.156250
138,35.156250
139,39.062500
140,39.062500
141,39.062500
142,39.062500
143,39.062500
144,39.062500
145,39.062500
146,42.968750
147,42.968750
148,42.968750
149,42.968750
150,42.968750
151,42.968750
152,42.968750
153,46.875000
154,46.875000
155,46.875000
156,46.875000
157,46.875000
158,46.875000
159,50.781250
160,50.781250
161,50.781250
162,50.781250
163,50.781250
164,50.781250
165,54.687500
166,54.687500
167,54.687500
168,54.687500
169,54.687500
170,54.687500
171,54.687500
172,54.687500
173,54.687500
174,58.593750
175,58.593750
176,58.593750
177,58.593750
178,58.593750
179,58.593750
180,58.593750
181,62.500000
182,62.500000
183,62.500000
184,62.500000
185,62.500000
186,62.500000
187,62.500000
188,62.500000
189,66.406250
190,66.406250
191,66.406250
192,66.406250
193,66.406250
194,66.406250
195,70.312500
196,70.312500
197,70.312500
198,70.312500
199,70.312500
200,70.312500
201,70.312500
202,70.312500
203,70.312500
204,70.312500
205,70.312500
206,74.218750
207,74.218750
208,74.218750
209,74.218750
210,74.218750
211,74.218750
212,74.218750
213,74.218750
214,74.218750
215,78.125000
216,78.125000
217,78.125000
218,78.125000
219,78.125000
220,78.125000
221,78.125000
222,78.125000
223,82.031250
224,82.031250
225,82.031250
226,82.031250
227,82.031250
228,82.031250
229,82.031250
230,82.031250
231,82.031250
232,82.031250
233,82.031250
234,82.031250
235,85.937500
236,85.937500
237,85.937500
238,85.937500
239,85.937500
240,85.937500
241,85.937500
242,85.937500
243,85.937500
244,85.937500
245,85.937500
246,85.937500
247,85.937500
248,89.843750
249,89.843750
250,89.843750
251,89.843750
252,89.843750
253,89.843750
254,89.843750
255,89.843750
256,89.843750
257,89.843750
258,89.843750
259,89.843750
260,89.843750
261,89.843750
262,89.843750
263,93.750000
264,93.750000
265,93.750000
266,93.750000
267,93.750000
268,93.750000
269,93.750000
270,93.750000
271,93.750000
272,93.750000
273,93.750000
274,93.750000
275,93.750000
276,93.750000
277,93.750000
278,93.750000
279,93.750000
280,93.750000
281,93.750000
282,93.750000
283,93.750000
284,93.750000
285,93.750000
286,93.750000
287,93.750000
288,93.750000
289,97.656250
290,97.656250
291,97.656250
292,97.656250
293,97.656250
294,97.656250
295,97.656250
296,97.656250
297,97.656250
298,97.656250
299,97.656250
300,97.656250
301,97.656250
302,97.656250
303,97.656250
304,97.656250
305,97.656250
306,97.656250
307,97.656250
308,97.656250
309,97.656250
310,97.656250
311,97.656250
312,97.656250
313,97.656250
314,97.656250
315,97.656250
316,97.656250
317,97.656250
318,97.656250
319,97.656250
320,97.656250
321,97.656250
322,97.656250
323,97.656250
324,97.656250
325,97.656250
326,97.656250
327,97.656250
328,97.656250
329,97.656250
330,97.656250
331,97.656250
332,97.656250
333,97.656250
334,97.656250
335,97.656250
336,97.656250
337,97.656250
338,97.656250
339,97.656250
340,97.656250
341,97.656250
342,97.656250
343,97.656250
344,97.656250
345,97.656250
346,97.656250
347,97.656250
348,97.656250
349,97.656250
350,97.656250
351,97.656250
352,97.656250
353,97.656250
354,93.750000
355,97.656250
356,97.656250
357,97.656250
358,97.656250
359,97.656250
360,97.656250
361,93.750000
362,93.750000
363,93.750000
364,93.750000
365,93.750000
366,93.750000
367,93.750000
368,93.750000
369,93.750000
370,93.750000
371,93.750000
372,93.750000
373,93.750000
374,93.750000
375,93.750000
376,93.750000
377,93.750000
378,93.750000
379,93.750000
380,93.750000
381,89.843750
382,93.750000
383,89.843750
384,89.843750
385,89.843750
386,89.843750
387,89.843750
388,89.843750
389,89.843750
390,89.843750
391,89.843750
392,89.843750
393,89.843750
394,89.843750
395,89.843750
396,85.937500
397,85.937500
398,85.937500
399,85.937500
400,85.937500
401,85.937500
402,85.937500
403,85.937500
404,85.937500
405,85.937500
406,85.937500
407,85.937500
408,85.937500
409,82.031250
410,82.031250
411,82.031250
412,82.031250
413,82.031250
414,82.031250
415,82.031250
416,82.031250
417,82.031250
418,82.031250
419,82.031250
420,78.125000
421,82.031250
422,78.125000
423,78.125000
424,78.125000
425,78.125000
426,78.125000
427,78.125000
428,78.125000
429,78.125000
430,74.218750
431,74.218750
432,74.218750
433,74.218750
434,74.218750
435,74.218750
436,74.218750
437,74.218750
438,74.218750
439,74.218750
440,70.312500
441,70.312500
442,70.312500
443,70.312500
444,70.312500
445,70.312500
446,70.312500
447,70.312500
448,70.312500
449,66.406250
450,66.406250
451,66.406250
452,66.406250
453,66.406250
454,66.406250
455,66.406250
456,66.406250
457,66.406250
458,62.500000
459,62.500000
460,62.500000
461,62.500000
462,62.500000
463,62.500000
464,62.500000
465,62.500000
466,62.500000
467,58.593750
468,58.593750
469,58.593750
470,58.593750
471,58.593750
472,54.687500
473,54.687500
474,54.687500
475,54.687500
476,54.687500
477,54.687500
478,54.687500
479,54.687500
480,50.781250
481,50.781250
482,50.781250
483,50.781250
484,50.781250
485,50.781250
486,50.781250
487,50.781250
488,46.875000
489,46.875000
490,46.875000
491,46.875000
492,42.968750
493,46.875000
494,42.968750
495,42.968750
496,42.968750
497,42.968750
498,42.968750
499,42.968750
500,39.062500
501,39.062500
502,39.062500
503,39.062500
504,39.062500
505,39.062500
506,35.156250
507,35.156250
508,35.156250
509,35.156250
510,35.156250
511,35.156250
512,35.156250
513,31.250000
514,31.250000
515,31.250000
516,31.250000
517,31.250000
518,27.343750
519,27.343750
520,27.343750
521,27.343750
522,27.343750
523,27.343750
524,23.437500
525,23.437500
526,23.437500
527,23.437500
528,23.437500
529,19.531250
530,19.531250
531,19.531250
532,19.531250
533,19.531250
534,19.531250
535,19.531250
536,15.625000
537,15.625000
538,15.625000
539,15.625000
540,15.625000
541,11.718750
542,11.718750
543,11.718750
544,11.718750
545,11.718750
546,7.812500
547,7.812500
548,7.812500
549,7.812500
550,7.812500
551,7.812500
552,7.812500
553,3.906250
554,3.906250
555,3.906250
556,3.906250
557,0.000000
558,0.000000
559,0.000000
560,0.000000
561,0.000000
562,0.000000
563,0.000000
564,-3.906250
565,-3.906250
566,-3.906250
567,-7.812500
568,-7.812500
569,-7.812500
570,-7.812500
571,-7.812500
572,-7.812500
573,-7.812500
574,-11.718750
575,-11.718750
576,-11.718750
577,-11.718750
578,-15.625000
579,-15.625000
580,-15.625000
581,-15.625000
582,-15.625000
583,-15.625000
584,-19.531250
585,-19.531250
586,-19.531250
587,-19.531250
588,-19.531250
589,-23.437500
590,-23.437500
591,-23.437500
592,-23.437500
593,-23.437500
594,-23.437500
595,-27.343750
596,-27.343750
597,-27.343750
598,-27.343750
599,-27.343750
600,-31.250000
601,-31.250000
602,-31.250000
603,-31.250000
604,-31.250000
605,-35.156250
606,-35.156250
607,-35.156250
608,-35.156250
609,-35.156250
610,-39.062500
611,-39.062500
612,-39.062500
613,-39.062500
614,-39.062500
615,-39.062500
616,-39.062500
617,-42.968750
618,-42.968750
619,-42.968750
620,-42.968750
621,-42.968750
622,-46.875000
623,-46.875000
624,-46.875000
625,-46.875000
626,-46.875000
627,-50.781250
628,-50.781250
629,-50.781250
630,-50.781250
631,-50.781250
632,-50.781250
633,-54.687500
634,-54.687500
635,-54.687500
636,-54.687500
637,-54.687500
638,-58.593750
639,-58.593750
640,-58.593750
641,-58.593750
642,-58.593750
643,-58.593750
644,-62.500000
645,-62.500000
646,-62.500000
647,-62.500000
648,-62.500000
649,-62.500000
650,-66.406250
651,-66.406250
652,-66.406250
653,-66.406250
654,-70.312500
655,-66.406250
656,-70.312500
657,-70.312500
658,-70.312500
659,-70.312500
660,-70.312500
661,-70.312500
662,-74.218750
663,-74.218750
664,-74.218750
665,-74.218750
666,-74.218750
667,-78.125000
668,-78.125000
669,-78.125000
670,-78.125000
671,-78.125000
672,-78.125000
673,-78.125000
674,-82.031250
675,-82.031250
676,-82.031250
677,-82.031250
678,-82.031250
679,-85.937500
680,-85.937500
681,-85.937500
682,-85.937500
683,-85.937500
684,-85.937500
685,-85.937500
686,-85.937500
687,-89.843750
688,-89.843750
689,-89.843750
690,-89.843750
691,-89.843750
692,-93.750000
693,-93.750000
694,-93.750000
695,-93.750000
696,-93.750000
697,-93.750000
698,-93.750000
699,-93.750000
700,-97.656250
701,-97.656250
702,-97.656250
703,-97.656250
704,-97.656250
705,-97.656250
706,-101.562500
707,-101.562500
708,-101.562500
709,-101.562500
710,-101.562500
711,-101.562500
712,-101.562500
713,-101.562500
714,-101.562500
715,-101.562500
716,-105.468750
717,-105.468750
718,-105.468750
719,-105.468750
720,-105.468750
721,-105.468750
722,-105.468750
723,-105.468750
724,-109.375000
725,-109.375000
726,-109.375000
727,-109.375000
728,-109.375000
729,-109.375000
730,-109.375000
731,-109.375000
732,-109.375000
733,-113.281250
734,-113.281250
735,-113.281250
736,-113.281250
737,-113.281250
738,-113.281250
739,-113.281250
740,-113.281250
741,-113.281250
742,-113.281250
743,-117.187500
744,-117.187500
745,-117.187500
746,-117.187500
747,-117.187500
748,-117.187500
749,-117.187500
750,-117.187500
751,-117.187500
752,-117.187500
753,-117.187500
754,-117.187500
755,-117.187500
756,-121.093750
757,-121.093750
758,-121.093750
759,-121.093750
760,-121.093750
761,-121.093750
762,-121.093750
763,-121.093750
764,-121.093750
765,-121.093750
766,-121.093750
767,-121.093750
768,-125.000000
769,-125.000000
770,-125.000000
771,-125.000000
772,-125.000000
773,-125.000000
774,-125.000000
775,-125.000000
776,-125.000000
777,-125.000000
778,-125.000000
779,-125.000000
780,-125.000000
781,-125.000000
782,-125.000000
783,-125.000000
784,-128.906250
785,-128.906250
786,-125.000000
787,-125.000000
788,-128.906250
789,-128.906250
790,-128.906250
791,-128.906250
792,-128.906250
793,-128.906250
794,-128.906250
795,-128.906250
796,-128.906250
797,-128.906250
798,-128.906250
799,-128.906250
800,-128.906250
801,-128.906250
802,-128.906250
803,-128.906250
804,-128.906250
805,-128.906250
806,-128.906250
807,-128.906250
808,-128.906250
809,-128.906250
810,-128.906250
811,-128.906250
812,-128.906250
813,-128.906250
814,-128.906250
815,-128.906250
816,-128.906250
817,-128.906250
818,-128.906250
819,-128.906250
820,-128.906250
821,-128.906250
822,-128.906250
823,-128.906250
824,-128.906250
825,-128.906250
826,-128.906250
827,-128.906250
828,-128.906250
829,-128.906250
830,-128.906250
831,-128.906250
832,-128.906250
833,-128.906250
834,-128.906250
835,-128.906250
836,-128.906250
837,-128.906250
838,-128.906250
839,-128.906250
840,-128.906250
841,-128.906250
842,-128.906250
843,-128.906250
844,-128.906250
845,-128.906250
846,-128.906250
847,-128.906250
848,-125.000000
849,-125.000000
850,-125.000000
851,-125.000000
852,-128.906250
853,-125.000000
854,-125.000000
855,-125.000000
856,-125.000000
857,-125.000000
858,-125.000000
859,-125.000000
860,-125.000000
861,-125.000000
862,-125.000000
863,-125.000000
864,-125.000000
865,-125.000000
866,-125.000000
867,-125.000000
868,-121.093750
869,-121.093750
870,-121.093750
871,-121.093750
872,-121.093750
873,-121.093750
874,-121.093750
875,-121.093750
876,-121.093750
877,-121.093750
878,-121.093750
879,-121.093750
880,-117.187500
881,-117.187500
882,-117.187500
883,-117.187500
884,-117.187500
885,-117.187500
886,-117.187500
887,-117.187500
888,-117.187500
889,-117.187500
890,-117.187500
891,-117.187500
892,-117.187500
893,-113.281250
894,-113.281250
895,-113.281250
896,-113.281250
897,-113.281250
898,-113.281250
899,-113.281250
900,-113.281250
901,-113.281250
902,-109.375000
903,-109.375000
904,-109.375000
905,-109.375000
906,-109.375000
907,-109.375000
908,-109.375000
909,-109.375000
910,-105.468750
911,-105.468750
912,-105.468750
913,-105.468750
914,-105.468750
915,-105.468750
916,-105.468750
917,-105.468750
918,-105.468750
919,-101.562500
920,-101.562500
921,-101.562500
922,-101.562500
923,-101.562500
924,-101.562500
925,-101.562500
926,-101.562500
927,-97.656250
928,-97.656250
929,-97.656250
930,-97.656250
931,-97.656250
932,-97.656250
933,-97.656250
934,-97.656250
935,-93.750000
936,-93.750000
937,-93.750000
938,-93.750000
939,-93.750000
940,-93.750000
941,-93.750000
942,-89.843750
943,-89.843750
944,-89.843750
945,-89.843750
946,-89.843750
947,-89.843750
948,-89.843750
949,-85.937500
950,-85.937500
951,-85.937500
952,-85.937500
953,-85.937500
954,-85.937500
955,-82.031250
956,-82.031250
957,-82.031250
958,-82.031250
959,-82.031250
960,-82.031250
961,-78.125000
962,-78.125000
963,-78.125000
964,-78.125000
965,-78.125000
966,-78.125000
967,-74.218750
968,-74.218750
969,-74.218750
970,-74.218750
971,-74.218750
972,-74.218750
973,-70.312500
974,-70.312500
975,-70.312500
976,-70.312500
977,-70.312500
978,-70.312500
979,-66.406250
980,-66.406250
981,-66.406250
982,-66.406250
983,-66.406250
984,-66.406250
985,-66.406250
986,-62.500000
987,-62.500000
988,-62.500000
989,-62.500000
990,-58.593750
991,-58.593750
992,-58.593750
993,-58.593750
994,-58.593750
995,-58.593750
996,-54.687500
997,-54.687500
998,-54.687500
999,-54.687500
1000,-54.687500
1001,-54.687500
1002,-50.781250
1003,-50.781250
1004,-50.781250
1005,-50.781250
1006,-50.781250
1007,-46.875000
1008,-46.875000
1009,-46.875000
1010,-46.875000
1011,-46.875000
1012,-46.875000
1013,-42.968750
1014,-42.968750
1015,-42.968750
1016,-42.968750
1017,-39.062500
1018,-39.062500
1019,-39.062500
1020,-39.062500
1021,-39.062500
1022,-39.062500
1023,-35.156250
1024,-35.156250
1025,-35.156250
1026,-35.156250
1027,-35.156250
1028,-35.156250
1029,-31.250000
1030,-31.250000
1031,-31.250000
1032,-31.250000
1033,-31.250000
1034,-27.343750
1035,-27.343750
1036,-27.343750
1037,-27.343750
1038,-27.343750
1039,-23.437500
1040,-23.437500
1041,-23.437500
1042,-23.437500
1043,-19.531250
1044,-19.531250
1045,-19.531250
1046,-19.531250
1047,-19.531250
1048,-19.531250
1049,-19.531250
1050,-15.625000
1051,-15.625000
1052,-15.625000
1053,-15.625000
1054,-15.625000
1055,-11.718750
1056,-11.718750
1057,-11.718750
1058,-11.718750
1059,-11.718750
1060,-11.718750
1061,-7.812500
1062,-7.812500
1063,-7.812500
1064,-7.812500
1065,-3.906250
1066,-7.812500
1067,-3.906250
1068,-3.906250
1069,-3.906250
1070,-3.906250
1071,0.000000
1072,0.000000
1073,0.000000
1074,0.000000
1075,0.000000
1076,0.000000
1077,3.906250
1078,3.906250
1079,3.906250
1080,3.906250
1081,3.906250
1082,7.812500
1083,7.812500
1084,7.812500
1085,7.812500
1086,7.812500
1087,7.812500
1088,11.718750
1089,11.718750
1090,11.718750
1091,11.718750
1092,11.718750
1093,15.625000
1094,15.625000
1095,15.625000
1096,15.625000
1097,15.625000
1098,15.625000
1099,15.625000
1100,19.531250
1101,19.531250
1102,19.531250
1103,19.531250
1104,19.531250
1105,23.437500
1106,23.437500
1107,23.437500
1108,23.437500
1109,23.437500
1110,23.437500
1111,27.343750
1112,27.343750
1113,27.343750
1114,27.343750
1115,27.343750
1116,31.250000
1117,31.250000
1118,31.250000
1119,31.250000
1120,31.250000
1121,31.250000
1122,31.250000
1123,35.156250
1124,35.156250
1125,35.156250
1126,35.156250
1127,35.156250
1128,35.156250
1129,39.062500
1130,39.062500
1131,39.062500
1132,39.062500
1133,39.062500
1134,42.968750
1135,42.968750
1136,42.968750
1137,42.968750
1138,42.968750
1139,42.968750
1140,42.968750
1141,42.968750
1142,46.875000
1143,46.875000
1144,46.875000
1145,46.875000
1146,46.875000
1147,46.875000
1148,50.781250
1149,50.781250
1150,50.781250
1151,50.781250
1152,50.781250
1153,50.781250
1154,54.687500
1155,54.687500
1156,54.687500
1157,54.687500
1158,54.687500
1159,54.687500
1160,54.687500
1161,54.687500
1162,54.687500
1163,58.593750
1164,58.593750
1165,58.593750
1166,58.593750
1167,58.593750
1168,58.593750
1169,62.500000
1170,62.500000
1171,62.500000
1172,62.500000
1173,62.500000
1174,62.500000
1175,62.500000
1176,62.500000
1177,62.500000
1178,62.500000
1179,66.406250
1180,66.406250
1181,66.406250
1182,66.406250
1183,66.406250
1184,66.406250
1185,70.312500
1186,70.312500
1187,70.312500
1188,70.312500
1189,70.312500
1190,70.312500
1191,70.312500
1192,70.312500
1193,70.312500
1194,74.218750
1195,74.218750
1196,74.218750
1197,74.218750
1198,74.218750
1199,74.218750
1200,74.218750
1201,74.218750
1202,74.218750
1203,78.125000
1204,78.125000
1205,78.125000
1206,78.125000
1207,78.125000
1208,78.125000
1209,78.125000
1210,78.125000
1211,78.125000
1212,78.125000
1213,78.125000
1214,78.125000
1215,82.031250
1216,82.031250
1217,82.031250
1218,82.031250
1219,82.031250
1220,82.031250
1221,82.031250
1222,82.031250
1223,82.031250
1224,82.031250
1225,82.031250
1226,85.937500
1227,85.937500
1228,85.937500
1229,85.937500
1230,85.937500
1231,85.937500
1232,85.937500
1233,85.937500
1234,85.937500
1235,85.937500
1236,85.937500
1237,85.937500
1238,85.937500
1239,85.937500
1240,89.843750
1241,89.843750
1242,89.843750
1243,89.843750
1244,89.843750
1245,89.843750
1246,89.843750
1247,89.843750
1248,89.843750
1249,89.843750
1250,89.843750
1251,89.843750
1252,93.750000
1253,93.750000
1254,93.750000
1255,93.750000
1256,93.750000
1257,93.750000
1258,93.750000
1259,93.750000
1260,93.750000
1261,93.750000
1262,93.750000
1263,93.750000
1264,93.750000
1265,93.750000
1266,93.750000
1267,93.750000
1268,93.750000
1269,93.750000
1270,93.750000
1271,97.656250
1272,93.750000
1273,93.750000
1274,93.750000
1275,93.750000
1276,93.750000
1277,93.750000
1278,97.656250
1279,97.656250
1280,97.656250
1281,97.656250
1282,97.656250
1283,97.656250
1284,97.656250
1285,97.656250
1286,97.656250
1287,97.656250
1288,97.656250
1289,97.656250
1290,97.656250
1291,97.656250
1292,97.656250
1293,97.656250
1294,97.656250
1295,97.656250
1296,97.656250
1297,97.656250
1298,97.656250
1299,97.656250
1300,97.656250
1301,97.656250
1302,97.656250
1303,97.656250
1304,97.656250
1305,97.656250
1306,97.656250
1307,97.656250
1308,97.656250
1309,97.656250
1310,97.656250
1311,97.656250
1312,97.656250
1313,97.656250
1314,97.656250
1315,97.656250
1316,97.656250
1317,97.656250
1318,97.656250
1319,97.656250
1320,97.656250
1321,97.656250
1322,97.656250
1323,97.656250
1324,97.656250
1325,97.656250
1326,97.656250
1327,97.656250
1328,97.656250
1329,97.656250
1330,97.656250
1331,97.656250
1332,97.656250
1333,97.656250
1334,97.656250
1335,97.656250
1336,97.656250
1337,97.656250
1338,97.656250
1339,97.656250
1340,97.656250
1341,97.656250
1342,97.656250
1343,97.656250
1344,97.656250
1345,93.750000
1346,97.656250
1347,97.656250
1348,93.750000
1349,93.750000
1350,93.750000
1351,93.750000
1352,93.750000
1353,93.750000
1354,93.750000
1355,93.750000
1356,93.750000
1357,93.750000
1358,93.750000
1359,93.750000
1360,93.750000
1361,93.750000
1362,93.750000
1363,93.750000
1364,93.750000
1365,93.750000
1366,93.750000
1367,93.750000
1368,93.750000
1369,93.750000
1370,89.843750
1371,89.843750
1372,89.843750
1373,89.843750
1374,89.843750
1375,89.843750
1376,89.843750
1377,89.843750
1378,89.843750
1379,89.843750
1380,89.843750
1381,89.843750
1382,89.843750
1383,89.843750
1384,85.937500
1385,89.843750
1386,85.937500
1387,85.937500
1388,85.937500
1389,85.937500
1390,85.937500
1391,85.937500
1392,85.937500
1393,85.937500
1394,85.937500
1395,85.937500
1396,85.937500
1397,85.937500
1398,82.031250
1399,85.937500
1400,82.031250
1401,82.031250
1402,82.031250
1403,82.031250
1404,82.031250
1405,82.031250
1406,82.031250
1407,82.031250
1408,82.031250
1409,82.031250
1410,82.031250
1411,82.031250
1412,82.031250
1413,78.125000
1414,78.125000
1415,78.125000
1416,78.125000
1417,78.125000
1418,78.125000
1419,78.125000
1420,78.125000
1421,78.125000
1422,74.218750
1423,74.218750
1424,74.218750
1425,74.218750
1426,74.218750
1427,74.218750
1428,74.218750
1429,74.218750
1430,70.312500
1431,70.312500
1432,70.312500
1433,70.312500
1434,70.312500
1435,70.312500
1436,70.312500
1437,70.312500
1438,70.312500
1439,66.406250
1440,66.406250
1441,66.406250
1442,66.406250
1443,66.406250
1444,66.406250
1445,66.406250
1446,66.406250
1447,66.406250
1448,62.500000
1449,62.500000
1450,62.500000
1451,62.500000
1452,62.500000
1453,62.500000
1454,58.593750
1455,58.593750
1456,58.593750
1457,58.593750
1458,58.593750
1459,58.593750
1460,58.593750
1461,58.593750
1462,54.687500
1463,54.687500
1464,54.687500
1465,54.687500
1466,54.687500
1467,54.687500
1468,54.687500
1469,50.781250
1470,50.781250
1471,50.781250
1472,50.781250
1473,50.781250
1474,50.781250
1475,50.781250
1476,46.875000
1477,46.875000
1478,46.875000
1479,46.875000
1480,46.875000
1481,46.875000
1482,46.875000
1483,46.875000
1484,42.968750
1485,42.968750
1486,42.968750
1487,42.968750
1488,39.062500
1489,39.062500
1490,39.062500
1491,39.062500
1492,39.062500
1493,39.062500
1494,39.062500
1495,39.062500
1496,35.156250
1497,35.156250
1498,35.156250
1499,35.156250
1500,35.156250
1501,31.250000
1502,31.250000
1503,31.250000
1504,31.250000
1505,31.250000
1506,31.250000
1507,31.250000
1508,31.250000
1509,27.343750
1510,27.343750
1511,27.343750
1512,27.343750
1513,27.343750
1514,23.437500
1515,23.437500
1516,23.437500
1517,23.437500
1518,23.437500
1519,23.437500
1520,19.531250
1521,19.531250
1522,19.531250
1523,19.531250
1524,19.531250
1525,15.625000
1526,15.625000
1527,15.625000
1528,15.625000
1529,15.625000
1530,11.718750
1531,11.718750
1532,11.718750
1533,11.718750
1534,11.718750
1535,11.718750
1536,11.718750
1537,7.812500
1538,7.812500
1539,7.812500
1540,7.812500
1541,7.812500
1542,7.812500
1543,3.906250
1544,3.906250
1545,3.906250
1546,3.906250
1547,0.000000
1548,0.000000
1549,0.000000
1550,0.000000
1551,0.000000
1552,0.000000
1553,-3.906250
1554,-3.906250
1555,-3.906250
1556,-3.906250
1557,-3.906250
1558,-7.812500
1559,-7.812500
1560,-7.812500
1561,-7.812500
1562,-7.812500
1563,-11.718750
1564,-11.718750
1565,-11.718750
1566,-11.718750
1567,-11.718750
1568,-11.718750
1569,-15.625000
1570,-15.625000
1571,-15.625000
1572,-15.625000
1573,-15.625000
1574,-19.531250
1575,-19.531250
1576,-19.531250
1577,-19.531250
1578,-19.531250
1579,-19.531250
1580,-23.437500
1581,-23.437500
1582,-23.437500
1583,-23.437500
1584,-23.437500
1585,-27.343750
1586,-27.343750
1587,-27.343750
1588,-27.343750
1589,-31.250000
1590,-31.250000
1591,-31.250000
1592,-31.250000
1593,-31.250000
1594,-31.250000
1595,-35.156250
1596,-35.156250
1597,-35.156250
1598,-35.156250
1599,-35.156250
1600,-35.156250
1601,-39.062500
1602,-39.062500
1603,-39.062500
1604,-39.062500
1605,-39.062500
1606,-42.968750
1607,-42.968750
1608,-42.968750
1609,-42.968750
1610,-42.968750
1611,-46.875000
1612,-46.875000
1613,-46.875000
1614,-46.875000
1615,-46.875000
1616,-50.781250
1617,-50.781250
1618,-50.781250
1619,-50.781250
1620,-50.781250
1621,-54.687500
1622,-54.687500
1623,-54.687500
1624,-54.687500
1625,-54.687500
1626,-54.687500
1627,-58.593750
1628,-54.687500
1629,-58.593750
1630,-58.593750
1631,-58.593750
1632,-62.500000
1633,-62.500000
1634,-62.500000
1635,-62.500000
1636,-62.500000
1637,-62.500000
1638,-62.500000
1639,-62.500000
1640,-66.406250
1641,-66.406250
1642,-66.406250
1643,-66.406250
1644,-70.312500
1645,-70.312500
1646,-70.312500
1647,-70.312500
1648,-70.312500
1649,-70.312500
1650,-70.312500
1651,-74.218750
1652,-74.218750
1653,-74.218750
1654,-74.218750
1655,-74.218750
1656,-74.218750
1657,-78.125000
1658,-78.125000
1659,-78.125000
1660,-78.125000
1661,-78.125000
1662,-78.125000
1663,-78.125000
1664,-82.031250
1665,-82.031250
1666,-82.031250
1667,-82.031250
1668,-82.031250
1669,-85.937500
1670,-85.937500
1671,-85.937500
1672,-85.937500
1673,-85.937500
1674,-85.937500
1675,-85.937500
1676,-89.843750
1677,-89.843750
1678,-89.843750
1679,-89.843750
1680,-89.843750
1681,-89.843750
1682,-89.843750
1683,-89.843750
1684,-93.750000
1685,-93.750000
1686,-93.750000
1687,-93.750000
1688,-93.750000
1689,-93.750000
1690,-97.656250
1691,-97.656250
1692,-97.656250
1693,-97.656250
1694,-97.656250
1695,-97.656250
1696,-97.656250
1697,-101.562500
1698,-101.562500
1699,-101.562500
1700,-101.562500
1701,-101.562500
1702,-101.562500
1703,-101.562500
1704,-101.562500
1705,-101.562500
1706,-105.468750
1707,-105.468750
1708,-105.468750
1709,-105.468750
1710,-105.468750
1711,-105.468750
1712,-109.375000
1713,-105.468750
1714,-109.375000
1715,-109.375000
1716,-109.375000
1717,-109.375000
1718,-109.375000
1719,-109.375000
1720,-109.375000
1721,-109.375000
1722,-109.375000
1723,-113.281250
1724,-113.281250
1725,-113.281250
1726,-113.281250
1727,-113.281250
1728,-113.281250
1729,-113.281250
1730,-113.281250
1731,-117.187500
1732,-117.187500
1733,-117.187500
1734,-117.187500
1735,-117.187500
1736,-117.187500
1737,-117.187500
1738,-117.187500
1739,-117.187500
1740,-117.187500
1741,-117.187500
1742,-121.093750
1743,-121.093750
1744,-121.093750
1745,-121.093750
1746,-121.093750
1747,-121.093750
1748,-121.093750
1749,-121.093750
1750,-121.093750
1751,-121.093750
1752,-121.093750
1753,-121.093750
1754,-121.093750
1755,-121.093750
1756,-121.093750
1757,-125.000000
1758,-121.093750
1759,-121.093750
1760,-121.093750
1761,-125.000000
1762,-125.000000
1763,-125.000000
1764,-125.000000
1765,-125.000000
1766,-125.000000
1767,-125.000000
1768,-125.000000
1769,-125.000000
1770,-125.000000
1771,-125.000000
1772,-125.000000
1773,-125.000000
1774,-125.000000
1775,-125.000000
1776,-125.000000
1777,-125.000000
1778,-125.000000
1779,-125.000000
1780,-125.000000
1781,-128.906250
1782,-128.906250
1783,-128.906250
1784,-128.906250
1785,-128.906250
1786,-128.906250
1787,-128.906250
1788,-128.906250
1789,-128.906250
1790,-128.906250
1791,-128.906250
1792,-128.906250
1793,-128.906250
1794,-128.906250
1795,-128.906250
1796,-128.906250
1797,-128.906250
1798,-128.906250
1799,-128.906250
1800,-128.906250
1801,-128.906250
1802,-128.906250
1803,-128.906250
1804,-128.906250
1805,-128.906250
1806,-128.906250
1807,-128.906250
1808,-128.906250
1809,-128.906250
1810,-128.906250
1811,-128.906250
1812,-128.906250
1813,-128.906250
1814,-128.906250
1815,-128.906250
1816,-128.906250
1817,-128.906250
1818,-128.906250
1819,-128.906250
1820,-128.906250
1821,-128.906250
1822,-128.906250
1823,-128.906250
1824,-128.906250
1825,-128.906250
1826,-128.906250
1827,-128.906250
1828,-128.906250
1829,-128.906250
1830,-128.906250
1831,-125.000000
1832,-128.906250
1833,-128.906250
1834,-128.906250
1835,-128.906250
1836,-128.906250
1837,-128.906250
1838,-125.000000
1839,-125.000000
1840,-125.000000
1841,-125.000000
1842,-125.000000
1843,-125.000000
1844,-125.000000
1845,-125.000000
1846,-125.000000
1847,-125.000000
1848,-125.000000
1849,-125.000000
1850,-125.000000
1851,-125.000000
1852,-125.000000
1853,-125.000000
1854,-125.000000
1855,-125.000000
1856,-125.000000
1857,-121.093750
1858,-121.093750
1859,-121.093750
1860,-121.093750
1861,-121.093750
1862,-121.093750
1863,-121.093750
1864,-121.093750
1865,-121.093750
1866,-121.093750
1867,-121.093750
1868,-121.093750
1869,-121.093750
1870,-121.093750
1871,-117.187500
1872,-117.187500
1873,-117.187500
1874,-117.187500
1875,-117.187500
1876,-117.187500
1877,-117.187500
1878,-117.187500
1879,-117.187500
1880,-117.187500
1881,-117.187500
1882,-113.281250
1883,-113.281250
1884,-113.281250
1885,-113.281250
1886,-117.187500
1887,-113.281250
1888,-113.281250
1889,-113.281250
1890,-113.281250
1891,-113.281250
1892,-109.375000
1893,-109.375000
1894,-109.375000
1895,-109.375000
1896,-109.375000
1897,-109.375000
1898,-109.375000
1899,-105.468750
1900,-105.468750
1901,-105.468750
1902,-105.468750
1903,-105.468750
1904,-105.468750
1905,-105.468750
1906,-105.468750
1907,-105.468750
1908,-105.468750
1909,-101.562500
1910,-101.562500
1911,-101.562500
1912,-101.562500
1913,-101.562500
1914,-101.562500
1915,-101.562500
1916,-101.562500
1917,-97.656250
1918,-97.656250
1919,-97.656250
1920,-97.656250
1921,-97.656250
1922,-97.656250
1923,-97.656250
1924,-93.750000
1925,-93.750000
1926,-93.750000
1927,-93.750000
1928,-93.750000
1929,-93.750000
1930,-93.750000
1931,-89.843750
1932,-89.843750
1933,-89.843750
1934,-89.843750
1935,-89.843750
1936,-89.843750
1937,-89.843750
1938,-85.937500
1939,-85.937500
1940,-85.937500
1941,-85.937500
1942,-85.937500
1943,-82.031250
1944,-82.031250
1945,-82.031250
1946,-82.031250
1947,-82.031250
1948,-82.031250
1949,-82.031250
1950,-82.031250
1951,-78.125000
1952,-78.125000
1953,-78.125000
1954,-78.125000
1955,-78.125000
1956,-78.125000
1957,-74.218750
1958,-74.218750
1959,-74.218750
1960,-74.218750
1961,-74.218750
1962,-70.312500
1963,-70.312500
1964,-70.312500
1965,-70.312500
1966,-70.312500
1967,-70.312500
1968,-70.312500
1969,-66.406250
1970,-66.406250
1971,-66.406250
1972,-66.406250
1973,-66.406250
1974,-66.406250
1975,-62.500000
1976,-62.500000
1977,-62.500000
1978,-62.500000
1979,-62.500000
1980,-62.500000
1981,-58.593750
1982,-58.593750
1983,-58.593750
1984,-58.593750
1985,-58.593750
1986,-54.687500
1987,-54.687500
1988,-54.687500
1989,-54.687500
1990,-54.687500
1991,-54.687500
1992,-50.781250
1993,-50.781250
1994,-50.781250
1995,-50.781250
1996,-50.781250
1997,-46.875000
1998,-50.781250
1999,-46.875000
2000,-46.875000
2001,-46.875000
2002,-46.875000
2003,-42.968750
2004,-42.968750
2005,-42.968750
2006,-42.968750
2007,-42.968750
2008,-39.062500
2009,-39.062500
2010,-39.062500
2011,-39.062500
2012,-39.062500
2013,-35.156250
2014,-35.156250
2015,-35.156250
2016,-35.156250
2017,-35.156250
2018,-35.156250
2019,-31.250000
2020,-31.250000
2021,-31.250000
2022,-31.250000
2023,-27.343750
2024,-27.343750
2025,-27.343750
2026,-27.343750
2027,-27.343750
2028,-27.343750
2029,-23.437500
2030,-23.437500
2031,-23.437500
2032,-23.437500
2033,-23.437500
2034,-19.531250
2035,-19.531250
2036,-19.531250
2037,-19.531250
2038,-19.531250
2039,-15.625000
2040,-15.625000
2041,-15.625000
2042,-15.625000
2043,-15.625000
2044,-15.625000
2045,-11.718750
2046,-11.718750
2047,-11.718750
2048,-11.718750
2049,-11.718750
2050,-7.812500
2051,-7.812500
2052,-7.812500
2053,-7.812500
2054,-7.812500
2055,-7.812500
2056,-3.906250
2057,-3.906250
2058,-3.906250
2059,-3.906250
2060,-3.906250
2061,0.000000
2062,0.000000
2063,0.000000
2064,0.000000
2065,0.000000
2066,0.000000
2067,3.906250
2068,3.906250
2069,3.906250
2070,3.906250
2071,7.812500
2072,7.812500
2073,7.812500
2074,7.812500
2075,7.812500
2076,7.812500
2077,7.812500
2078,11.718750
2079,11.718750
2080,11.718750
2081,11.718750
2082,11.718750
2083,15.625000
2084,15.625000
2085,15.625000
2086,15.625000
2087,15.625000
2088,15.625000
2089,19.531250
2090,19.531250
2091,19.531250
2092,19.531250
2093,19.531250
2094,19.531250
2095,23.437500
2096,23.437500
2097,23.437500
2098,23.437500
2099,23.437500
2100,23.437500
2101,27.343750
2102,27.343750
2103,27.343750
2104,27.343750
2105,27.343750
2106,27.343750
2107,31.250000
2108,31.250000
2109,31.250000
2110,31.250000
2111,31.250000
2112,35.156250
2113,35.156250
2114,35.156250
2115,35.156250
2116,35.156250
2117,35.156250
2118,35.156250
2119,39.062500
2120,39.062500
2121,39.062500
2122,39.062500
2123,39.062500
2124,39.062500
2125,42.968750
2126,42.968750
2127,42.968750
2128,42.968750
2129,42.968750
2130,42.968750
2131,46.875000
2132,46.875000
2133,46.875000
2134,46.875000
2135,46.875000
2136,46.875000
2137,46.875000
2138,50.781250
2139,50.781250
2140,50.781250
2141,50.781250
2142,50.781250
2143,50.781250
2144,50.781250
2145,50.781250
2146,54.687500
2147,54.687500
2148,54.687500
2149,54.687500
2150,54.687500
2151,54.687500
2152,58.593750
2153,58.593750
2154,58.593750
2155,58.593750
2156,58.593750
2157,58.593750
2158,58.593750
2159,58.593750
2160,62.500000
2161,62.500000
2162,62.500000
2163,62.500000
2164,62.500000
2165,62.500000
2166,62.500000
2167,66.406250
2168,66.406250
2169,66.406250
2170,66.406250
2171,66.406250
2172,66.406250
2173,66.406250
2174,66.406250
2175,70.312500
2176,70.312500
2177,70.312500
2178,70.312500
2179,70.312500
2180,70.312500
2181,70.312500
2182,70.312500
2183,70.312500
2184,74.218750
2185,74.218750
2186,74.218750
2187,74.218750
2188,74.218750
2189,74.218750
2190,74.218750
2191,74.218750
2192,78.125000
2193,74.218750
2194,78.125000
2195,78.125000
2196,78.125000
2197,78.125000
2198,78.125000
2199,78.125000
2200,78.125000
2201,78.125000
2202,78.125000
2203,82.031250
2204,78.125000
2205,82.031250
2206,82.031250
2207,82.031250
2208,82.031250
2209,82.031250
2210,82.031250
2211,82.031250
2212,82.031250
2213,85.937500
2214,82.031250
2215,85.937500
2216,85.937500
2217,85.937500
2218,85.937500
2219,85.937500
2220,85.937500
2221,85.937500
2222,85.937500
2223,85.937500
2224,85.937500
2225,85.937500
2226,85.937500
2227,89.843750
2228,85.937500
2229,89.843750
2230,89.843750
2231,89.843750
2232,89.843750
2233,89.843750
2234,89.843750
2235,89.843750
2236,89.843750
2237,89.843750
2238,89.843750
2239,89.843750
2240,89.843750
2241,89.843750
2242,89.843750
2243,89.843750
2244,89.843750
2245,93.750000
2246,89.843750
2247,93.750000
2248,93.750000
2249,93.750000
2250,93.750000
2251,93.750000
2252,93.750000
2253,93.750000
2254,93.750000
2255,93.750000
2256,93.750000
2257,93.750000
2258,93.750000
2259,93.750000
2260,93.750000
2261,93.750000
2262,97.656250
2263,93.750000
2264,93.750000
2265,93.750000
2266,93.750000
2267,93.750000
2268,97.656250
2269,97.656250
2270,97.656250
2271,97.656250
2272,97.656250
2273,97.656250
2274,97.656250
2275,97.656250
2276,97.656250
2277,97.656250
2278,97.656250
2279,97.656250
2280,97.656250
2281,97.656250
2282,97.656250
2283,97.656250
2284,97.656250
2285,97.656250
2286,97.656250
2287,97.656250
2288,97.656250
2289,97.656250
2290,93.750000
2291,97.656250
2292,97.656250
2293,97.656250
2294,97.656250
2295,97.656250
2296,97.656250
2297,97.656250
2298,97.656250
2299,97.656250
2300,97.656250
2301,97.656250
2302,97.656250
2303,97.656250
2304,97.656250
2305,97.656250
2306,97.656250
2307,97.656250
2308,97.656250
2309,97.656250
2310,97.656250
2311,97.656250
2312,97.656250
2313,97.656250
2314,97.656250
2315,97.656250
2316,97.656250
2317,97.656250
2318,97.656250
2319,97.656250
2320,97.656250
2321,97.656250
2322,97.656250
2323,97.656250
2324,97.656250
2325,97.656250
2326,97.656250
2327,97.656250
2328,97.656250
2329,97.656250
2330,97.656250
2331,97.656250
2332,97.656250
2333,97.656250
2334,97.656250
2335,97.656250
2336,97.656250
2337,97.656250
2338,93.750000
2339,93.750000
2340,93.750000
2341,97.656250
2342,93.750000
2343,97.656250
2344,93.750000
2345,93.750000
2346,93.750000
2347,93.750000
2348,93.750000
2349,93.750000
2350,93.750000
2351,93.750000
2352,93.750000
2353,93.750000
2354,93.750000
2355,93.750000
2356,93.750000
2357,93.750000
2358,89.843750
2359,93.750000
2360,93.750000
2361,89.843750
2362,89.843750
2363,89.843750
2364,89.843750
2365,89.843750
2366,89.843750
2367,89.843750
2368,89.843750
2369,89.843750
2370,89.843750
2371,89.843750
2372,89.843750
2373,89.843750
2374,85.937500
2375,85.937500
2376,85.937500
2377,89.843750
2378,85.937500
2379,85.937500
2380,85.937500
2381,85.937500
2382,85.937500
2383,85.937500
2384,85.937500
2385,85.937500
2386,82.031250
2387,82.031250
2388,82.031250
2389,82.031250
2390,82.031250
2391,82.031250
2392,82.031250
2393,82.031250
2394,82.031250
2395,82.031250
2396,82.031250
2397,82.031250
2398,82.031250
2399,78.125000
2400,82.031250
2401,78.125000
2402,78.125000
2403,78.125000
2404,78.125000
2405,78.125000
2406,78.125000
2407,74.218750
2408,78.125000
2409,78.125000
2410,78.125000
2411,74.218750
2412,74.218750
2413,74.218750
2414,74.218750
2415,74.218750
2416,74.218750
2417,74.218750
2418,74.218750
2419,74.218750
2420,70.312500
2421,70.312500
2422,70.312500
2423,70.312500
2424,70.312500
2425,70.312500
2426,70.312500
2427,70.312500
2428,70.312500
2429,66.406250
2430,66.406250
2431,66.406250
2432,66.406250
2433,66.406250
2434,66.406250
2435,66.406250
2436,66.406250
2437,66.406250
2438,62.500000
2439,62.500000
2440,62.500000
2441,62.500000
2442,62.500000
2443,62.500000
2444,62.500000
2445,62.500000
2446,58.593750
2447,58.593750
2448,58.593750
2449,58.593750
2450,58.593750
2451,54.687500
2452,58.593750
2453,54.687500
2454,54.687500
2455,54.687500
2456,54.687500
2457,54.687500
2458,54.687500
2459,50.781250
2460,50.781250
2461,50.781250
2462,50.781250
2463,50.781250
2464,50.781250
2465,50.781250
2466,46.875000
2467,46.875000
2468,46.875000
2469,46.875000
2470,46.875000
2471,46.875000
2472,42.968750
2473,42.968750
2474,42.968750
2475,42.968750
2476,42.968750
2477,42.968750
2478,42.968750
2479,39.062500
2480,39.062500
2481,39.062500
2482,39.062500
2483,39.062500
2484,35.156250
2485,35.156250
2486,35.156250
2487,35.156250
2488,35.156250
2489,35.156250
2490,35.156250
2491,35.156250
2492,31.250000
2493,31.250000
2494,31.250000
2495,31.250000
2496,31.250000
2497,31.250000
2498,27.343750
2499,27.343750
2500,27.343750
2501,27.343750
2502,27.343750
2503,23.437500
2504,23.437500
2505,23.437500
2506,23.437500
2507,23.437500
2508,23.437500
2509,19.531250
2510,19.531250
2511,19.531250
2512,19.531250
2513,19.531250
2514,19.531250
2515,19.531250
2516,15.625000
2517,15.625000
2518,15.625000
2519,15.625000
2520,11.718750
2521,11.718750
2522,11.718750
2523,11.718750
2524,11.718750
2525,11.718750
2526,7.812500
2527,7.812500
2528,7.812500
2529,7.812500
2530,7.812500
2531,7.812500
2532,7.812500
2533,3.906250
2534,3.906250
2535,3.906250
2536,3.906250
2537,0.000000
2538,0.000000
2539,0.000000
2540,0.000000
2541,0.000000
2542,0.000000
2543,-3.906250
2544,-3.906250
2545,-3.906250
2546,-3.906250
2547,-7.812500
2548,-7.812500
2549,-7.812500
2550,-7.812500
2551,-7.812500
2552,-7.812500
2553,-7.812500
2554,-11.718750
2555,-11.718750
2556,-11.718750
2557,-11.718750
2558,-11.718750
2559,-15.625000
2560,-15.625000
2561,-15.625000
2562,-15.625000
2563,-15.625000
2564,-15.625000
2565,-19.531250
2566,-19.531250
2567,-19.531250
2568,-19.531250
2569,-19.531250
2570,-23.437500
2571,-23.437500
2572,-23.437500
2573,-23.437500
2574,-27.343750
2575,-27.343750
2576,-27.343750
2577,-27.343750
2578,-27.343750
2579,-27.343750
2580,-31.250000
2581,-31.250000
2582,-31.250000
2583,-31.250000
2584,-31.250000
2585,-35.156250
2586,-35.156250
2587,-35.156250
2588,-35.156250
2589,-35.156250
2590,-39.062500
2591,-39.062500
2592,-39.062500
2593,-39.062500
2594,-39.062500
2595,-39.062500
2596,-42.968750
2597,-42.968750
2598,-42.968750
2599,-42.968750
2600,-42.968750
2601,-46.875000
2602,-46.875000
2603,-46.875000
2604,-46.875000
2605,-46.875000
2606,-46.875000
2607,-50.781250
2608,-50.781250
2609,-50.781250
2610,-50.781250
2611,-50.781250
2612,-54.687500
2613,-54.687500
2614,-54.687500
2615,-54.687500
2616,-54.687500
2617,-58.593750
2618,-58.593750
2619,-58.593750
2620,-58.593750
2621,-58.593750
2622,-58.593750
2623,-58.593750
2624,-62.500000
2625,-62.500000
2626,-62.500000
2627,-62.500000
2628,-62.500000
2629,-62.500000
2630,-66.406250
2631,-66.406250
2632,-66.406250
2633,-66.406250
2634,-70.312500
2635,-70.312500
2636,-70.312500
2637,-70.312500
2638,-70.312500
2639,-70.312500
2640,-74.218750
2641,-74.218750
2642,-74.218750
2643,-74.218750
2644,-74.218750
2645,-74.218750
2646,-74.218750
2647,-78.125000
2648,-78.125000
2649,-78.125000
2650,-78.125000
2651,-78.125000
2652,-82.031250
2653,-82.031250
2654,-82.031250
2655,-82.031250
2656,-82.031250
2657,-82.031250
2658,-82.031250
2659,-85.937500
2660,-85.937500
2661,-85.937500
2662,-85.937500
2663,-85.937500
2664,-89.843750
2665,-85.937500
2666,-89.843750
2667,-89.843750
2668,-89.843750
2669,-89.843750
2670,-89.843750
2671,-89.843750
2672,-93.750000
2673,-93.750000
2674,-93.750000
2675,-93.750000
2676,-93.750000
2677,-93.750000
2678,-93.750000
2679,-97.656250
2680,-97.656250
2681,-97.656250
2682,-97.656250
2683,-97.656250
2684,-97.656250
2685,-97.656250
2686,-101.562500
2687,-101.562500
2688,-101.562500
2689,-101.562500
2690,-101.562500
2691,-101.562500
2692,-101.562500
2693,-101.562500
2694,-101.562500
2695,-105.468750
2696,-105.468750
2697,-105.468750
2698,-105.468750
2699,-105.468750
2700,-105.468750
2701,-105.468750
2702,-105.468750
2703,-105.468750
2704,-109.375000
2705,-109.375000
2706,-109.375000
2707,-109.375000
2708,-109.375000
2709,-109.375000
2710,-109.375000
2711,-109.375000
2712,-113.281250
2713,-113.281250
2714,-113.281250
2715,-113.281250
2716,-113.281250
2717,-113.281250
2718,-113.281250
2719,-113.281250
2720,-113.281250
2721,-113.281250
2722,-117.187500
2723,-117.187500
2724,-117.187500
2725,-117.187500
2726,-117.187500
2727,-117.187500
2728,-117.187500
2729,-117.187500
2730,-117.187500
2731,-121.093750
2732,-117.187500
2733,-117.187500
2734,-117.187500
2735,-117.187500
2736,-121.093750
2737,-121.093750
2738,-121.093750
2739,-121.093750
2740,-121.093750
2741,-121.093750
2742,-121.093750
2743,-121.093750
2744,-121.093750
2745,-121.093750
2746,-125.000000
2747,-125.000000
2748,-125.000000
2749,-125.000000
2750,-125.000000
2751,-125.000000
2752,-125.000000
2753,-125.000000
2754,-125.000000
2755,-125.000000
2756,-125.000000
2757,-125.000000
2758,-125.000000
2759,-125.000000
2760,-125.000000
2761,-125.000000
2762,-125.000000
2763,-128.906250
2764,-128.906250
2765,-128.906250
2766,-128.906250
2767,-128.906250
2768,-128.906250
2769,-125.000000
2770,-128.906250
2771,-128.906250
2772,-128.906250
2773,-128.906250
2774,-128.906250
2775,-128.906250
2776,-128.906250
2777,-128.906250
2778,-128.906250
2779,-128.906250
2780,-128.906250
2781,-128.906250
2782,-128.906250
2783,-128.906250
2784,-128.906250
2785,-128.906250
2786,-128.906250
2787,-128.906250
2788,-128.906250
2789,-128.906250
2790,-128.906250
2791,-128.906250
2792,-128.906250
2793,-128.906250
2794,-128.906250
2795,-128.906250
2796,-128.906250
2797,-128.906250
2798,-128.906250
2799,-128.906250
2800,-128.906250
2801,-128.906250
2802,-128.906250
2803,-128.906250
2804,-128.906250
2805,-128.906250
2806,-128.906250
2807,-128.906250
2808,-128.906250
2809,-128.906250
2810,-128.906250
2811,-128.906250
2812,-128.906250
2813,-128.906250
2814,-128.906250
2815,-128.906250
2816,-128.906250
2817,-128.906250
2818,-128.906250
2819,-128.906250
2820,-128.906250
2821,-128.906250
2822,-128.906250
2823,-128.906250
2824,-128.906250
2825,-125.000000
2826,-128.906250
2827,-125.000000
2828,-125.000000
2829,-125.000000
2830,-125.000000
2831,-125.000000
2832,-125.000000
2833,-125.000000
2834,-125.000000
2835,-125.000000
2836,-125.000000
2837,-125.000000
2838,-125.000000
2839,-125.000000
2840,-125.000000
2841,-125.000000
2842,-125.000000
2843,-125.000000
2844,-125.000000
2845,-121.093750
2846,-125.000000
2847,-121.093750
2848,-121.093750
2849,-121.093750
2850,-121.093750
2851,-121.093750
2852,-121.093750
2853,-121.093750
2854,-121.093750
2855,-121.093750
2856,-121.093750
2857,-121.093750
2858,-121.093750
2859,-117.187500
2860,-117.187500
2861,-117.187500
2862,-117.187500
2863,-117.187500
2864,-117.187500
2865,-117.187500
2866,-117.187500
2867,-117.187500
2868,-117.187500
2869,-117.187500
2870,-117.187500
2871,-117.187500
2872,-113.281250
2873,-113.281250
2874,-113.281250
2875,-113.281250
2876,-113.281250
2877,-113.281250
2878,-113.281250
2879,-113.281250
2880,-113.281250
2881,-109.375000
2882,-109.375000
2883,-109.375000
2884,-109.375000
2885,-109.375000
2886,-109.375000
2887,-109.375000
2888,-109.375000
2889,-109.375000
2890,-105.468750
2891,-105.468750
2892,-105.468750
2893,-105.468750
2894,-105.468750
2895,-105.468750
2896,-105.468750
2897,-105.468750
2898,-101.562500
2899,-101.562500
2900,-101.562500
2901,-101.562500
2902,-101.562500
2903,-101.562500
2904,-101.562500
2905,-101.562500
2906,-97.656250
2907,-97.656250
2908,-97.656250
2909,-97.656250
2910,-97.656250
2911,-97.656250
2912,-97.656250
2913,-97.656250
2914,-93.750000
2915,-93.750000
2916,-93.750000
2917,-93.750000
2918,-93.750000
2919,-93.750000
2920,-93.750000
2921,-89.843750
2922,-89.843750
2923,-89.843750
2924,-89.843750
2925,-89.843750
2926,-89.843750
2927,-89.843750
2928,-85.937500
2929,-85.937500
2930,-85.937500
2931,-85.937500
2932,-85.937500
2933,-85.937500
2934,-85.937500
2935,-82.031250
2936,-82.031250
2937,-82.031250
2938,-82.031250
2939,-82.031250
2940,-78.125000
2941,-78.125000
2942,-78.125000
2943,-78.125000
2944,-78.125000
2945,-78.125000
2946,-78.125000
2947,-74.218750
2948,-74.218750
2949,-74.218750
2950,-74.218750
2951,-74.218750
2952,-74.218750
2953,-70.312500
2954,-70.312500
2955,-70.312500
2956,-70.312500
2957,-70.312500
2958,-66.406250
2959,-66.406250
2960,-66.406250
2961,-66.406250
2962,-66.406250
2963,-62.500000
2964,-62.500000
2965,-62.500000
2966,-62.500000
2967,-62.500000
2968,-62.500000
2969,-58.593750
2970,-58.593750
2971,-58.593750
2972,-58.593750
2973,-58.593750
2974,-58.593750
2975,-54.687500
2976,-54.687500
2977,-54.687500
2978,-54.687500
2979,-54.687500
2980,-50.781250
2981,-50.781250
2982,-50.781250
2983,-54.687500
2984,-50.781250
2985,-46.875000
2986,-46.875000
2987,-46.875000
2988,-46.875000
2989,-46.875000
2990,-46.875000
2991,-46.875000
2992,-42.968750
2993,-42.968750
2994,-42.968750
2995,-42.968750
2996,-42.968750
2997,-42.968750
2998,-39.062500
2999,-39.062500
3000,-39.062500
3001,-39.062500
3002,-39.062500
3003,-35.156250
3004,-35.156250
3005,-35.156250
3006,-35.156250
3007,-35.156250
3008,-31.250000
3009,-31.250000
3010,-31.250000
3011,-31.250000
3012,-31.250000
3013,-31.250000
3014,-27.343750
3015,-27.343750
3016,-27.343750
3017,-27.343750
3018,-27.343750
3019,-23.437500
3020,-23.437500
3021,-23.437500
3022,-23.437500
3023,-23.437500
3024,-23.437500
3025,-19.531250
3026,-19.531250
3027,-19.531250
3028,-19.531250
3029,-15.625000
3030,-15.625000
3031,-15.625000
3032,-15.625000
3033,-15.625000
3034,-15.625000
3035,-11.718750
3036,-11.718750
3037,-11.718750
3038,-11.718750
3039,-11.718750
3040,-11.718750
3041,-7.812500
3042,-7.812500
3043,-7.812500
3044,-3.906250
3045,-3.906250
3046,-3.906250
3047,-3.906250
3048,-3.906250
3049,-3.906250
3050,0.000000
3051,0.000000
3052,0.000000
3053,0.000000
3054,0.000000
3055,0.000000
3056,3.906250
3057,3.906250
3058,3.906250
3059,3.906250
3060,3.906250
3061,7.812500
3062,7.812500
3063,7.812500
3064,7.812500
3065,7.812500
3066,7.812500
3067,11.718750
3068,11.718750
3069,11.718750
3070,11.718750
3071,11.718750
3072,11.718750
3073,15.625000
3074,15.625000
3075,15.625000
3076,15.625000
3077,15.625000
3078,19.531250
3079,19.531250
3080,19.531250
3081,19.531250
3082,19.531250
3083,19.531250
3084,19.531250
3085,23.437500
3086,23.437500
3087,23.437500
3088,23.437500
3089,27.343750
3090,27.343750
3091,27.343750
3092,27.343750
3093,27.343750
3094,27.343750
3095,27.343750
3096,31.250000
3097,31.250000
3098,31.250000
3099,31.250000
3100,31.250000
3101,31.250000
3102,35.156250
3103,35.156250
3104,35.156250
3105,35.156250
3106,35.156250
3107,35.156250
3108,35.156250
3109,39.062500
3110,39.062500
3111,39.062500
3112,39.062500
3113,42.968750
3114,42.968750
3115,42.968750
3116,42.968750
3117,42.968750
3118,42.968750
3119,42.968750
3120,42.968750
3121,46.875000
3122,46.875000
3123,46.875000
3124,46.875000
3125,46.875000
3126,46.875000
3127,50.781250
3128,50.781250
3129,50.781250
3130,50.781250
3131,50.781250
3132,50.781250
3133,50.781250
3134,50.781250
3135,54.687500
3136,54.687500
3137,54.687500
3138,54.687500
3139,54.687500
3140,54.687500
3141,58.593750
3142,58.593750
3143,58.593750
3144,58.593750
3145,58.593750
3146,58.593750
3147,58.593750
3148,58.593750
3149,58.593750
3150,58.593750
3151,62.500000
3152,62.500000
3153,62.500000
3154,62.500000
3155,62.500000
3156,62.500000
3157,66.406250
3158,66.406250
3159,66.406250
3160,66.406250
3161,66.406250
3162,66.406250
3163,66.406250
3164,66.406250
3165,70.312500
3166,66.406250
3167,70.312500
3168,70.312500
3169,70.312500
3170,70.312500
3171,70.312500
3172,70.312500
3173,74.218750
3174,74.218750
3175,74.218750
3176,74.218750
3177,74.218750
3178,74.218750
3179,74.218750
3180,74.218750
3181,74.218750
3182,74.218750
3183,78.125000
3184,78.125000
3185,78.125000
3186,78.125000
3187,78.125000
3188,78.125000
3189,78.125000
3190,78.125000
3191,78.125000
3192,78.125000
3193,78.125000
3194,82.031250
3195,82.031250
3196,82.031250
3197,82.031250
3198,82.031250
3199,82.031250
3200,82.031250
3201,82.031250
3202,82.031250
3203,82.031250
3204,82.031250
3205,85.937500
3206,85.937500
3207,85.937500
3208,85.937500
3209,85.937500
3210,85.937500
3211,85.937500
3212,85.937500
3213,85.937500
3214,85.937500
3215,89.843750
3216,85.937500
3217,89.843750
3218,85.937500
3219,89.843750
3220,89.843750
3221,89.843750
3222,89.843750
3223,89.843750
3224,89.843750
3225,89.843750
3226,89.843750
3227,89.843750
3228,89.843750
3229,89.843750
3230,89.843750
3231,93.750000
3232,93.750000
3233,93.750000
3234,93.750000
3235,93.750000
3236,93.750000
3237,93.750000
3238,93.750000
3239,93.750000
3240,93.750000
3241,93.750000
3242,93.750000
3243,93.750000
3244,93.750000
3245,93.750000
3246,93.750000
3247,93.750000
3248,93.750000
3249,97.656250
3250,93.750000
3251,97.656250
3252,93.750000
3253,93.750000
3254,93.750000
3255,97.656250
3256,97.656250
3257,97.656250
3258,97.656250
3259,97.656250
3260,97.656250
3261,97.656250
3262,97.656250
3263,97.656250
3264,97.656250
3265,97.656250
3266,97.656250
3267,97.656250
3268,97.656250
3269,97.656250
3270,97.656250
3271,97.656250
3272,97.656250
3273,97.656250
3274,97.656250
3275,97.656250
3276,97.656250
3277,97.656250
3278,97.656250
3279,97.656250
3280,97.656250
3281,97.656250
3282,97.656250
3283,97.656250
3284,97.656250
3285,97.656250
3286,97.656250
3287,97.656250
3288,97.656250
3289,97.656250
3290,97.656250
3291,97.656250
3292,97.656250
3293,97.656250
3294,97.656250
3295,97.656250
3296,97.656250
3297,97.656250
3298,97.656250
3299,97.656250
3300,97.656250
3301,97.656250
3302,97.656250
3303,97.656250
3304,97.656250
3305,97.656250
3306,97.656250
3307,97.656250
3308,97.656250
3309,97.656250
3310,97.656250
3311,97.656250
3312,97.656250
3313,97.656250
3314,97.656250
3315,97.656250
3316,97.656250
3317,97.656250
3318,97.656250
3319,97.656250
3320,97.656250
3321,97.656250
3322,97.656250
3323,97.656250
3324,97.656250
3325,97.656250
3326,97.656250
3327,97.656250
3328,97.656250
3329,97.656250
3330,93.750000
3331,93.750000
3332,93.750000
3333,93.750000
3334,93.750000
3335,93.750000
3336,93.750000
3337,93.750000
3338,93.750000
3339,93.750000
3340,93.750000
3341,93.750000
3342,93.750000
3343,93.750000
3344,93.750000
3345,93.750000
3346,93.750000
3347,93.750000
3348,93.750000
3349,93.750000
3350,89.843750
3351,89.843750
3352,93.750000
3353,93.750000
3354,89.843750
3355,89.843750
3356,89.843750
3357,89.843750
3358,89.843750
3359,89.843750
3360,89.843750
3361,89.843750
3362,89.843750
3363,89.843750
3364,89.843750
3365,89.843750
3366,85.937500
3367,85.937500
3368,85.937500
3369,89.843750
3370,85.937500
3371,85.937500
3372,85.937500
3373,85.937500
3374,85.937500
3375,85.937500
3376,85.937500
3377,85.937500
3378,85.937500
3379,85.937500
3380,82.031250
3381,85.937500
3382,82.031250
3383,82.031250
3384,82.031250
3385,82.031250
3386,82.031250
3387,82.031250
3388,82.031250
3389,78.125000
3390,78.125000
3391,78.125000
3392,78.125000
3393,78.125000
3394,78.125000
3395,78.125000
3396,78.125000
3397,78.125000
3398,78.125000
3399,78.125000
3400,78.125000
3401,74.218750
3402,74.218750
3403,74.218750
3404,74.218750
3405,74.218750
3406,74.218750
3407,74.218750
3408,74.218750
3409,70.312500
3410,70.312500
3411,70.312500
3412,70.312500
3413,70.312500
3414,70.312500
3415,70.312500
3416,66.406250
3417,70.312500
3418,66.406250
3419,66.406250
3420,66.406250
3421,66.406250
3422,66.406250
3423,66.406250
3424,66.406250
3425,62.500000
3426,66.406250
3427,62.500000
3428,62.500000
3429,62.500000
3430,62.500000
3431,62.500000
3432,62.500000
3433,62.500000
3434,58.593750
3435,58.593750
3436,58.593750
3437,58.593750
3438,58.593750
3439,58.593750
3440,58.593750
3441,54.687500
3442,54.687500
3443,54.687500
3444,54.687500
3445,54.687500
3446,54.687500
3447,54.687500
3448,50.781250
3449,50.781250
3450,50.781250
3451,50.781250
3452,50.781250
3453,50.781250
3454,50.781250
3455,50.781250
3456,46.875000
3457,46.875000
3458,46.875000
3459,46.875000
3460,46.875000
3461,46.875000
3462,42.968750
3463,42.968750
3464,42.968750
3465,42.968750
3466,42.968750
3467,42.968750
3468,39.062500
3469,39.062500
3470,39.062500
3471,39.062500
3472,39.062500
3473,39.062500
3474,39.062500
3475,35.156250
3476,35.156250
3477,35.156250
3478,35.156250
3479,35.156250
3480,35.156250
3481,35.156250
3482,31.250000
3483,31.250000
3484,31.250000
3485,31.250000
3486,31.250000
3487,27.343750
3488,27.343750
3489,27.343750
3490,27.343750
3491,27.343750
3492,27.343750
3493,23.437500
3494,23.437500
3495,23.437500
3496,23.437500
3497,23.437500
3498,23.437500
3499,19.531250
3500,19.531250
3501,19.531250
3502,19.531250
3503,19.531250
3504,15.625000
3505,15.625000
3506,15.625000
3507,15.625000
3508,15.625000
3509,15.625000
3510,11.718750
3511,11.718750
3512,11.718750
3513,11.718750
3514,11.718750
3515,11.718750
3516,7.812500
3517,7.812500
3518,7.812500
3519,7.812500
3520,7.812500
3521,3.906250
3522,3.906250
3523,3.906250
3524,3.906250
3525,3.906250
3526,0.000000
3527,0.000000
3528,0.000000
3529,0.000000
3530,0.000000
3531,0.000000
3532,-3.906250
3533,-3.906250
3534,-3.906250
3535,-3.906250
3536,-3.906250
3537,-3.906250
3538,-7.812500
3539,-7.812500
3540,-7.812500
3541,-7.812500
3542,-11.718750
3543,-11.718750
3544,-11.718750
3545,-11.718750
3546,-11.718750
3547,-15.625000
3548,-15.625000
3549,-15.625000
3550,-15.625000
3551,-15.625000
3552,-15.625000
3553,-19.531250
3554,-19.531250
3555,-19.531250
3556,-19.531250
3557,-23.437500
3558,-23.437500
3559,-23.437500
3560,-23.437500
3561,-23.437500
3562,-23.437500
3563,-23.437500
3564,-27.343750
3565,-27.343750
3566,-27.343750
3567,-27.343750
3568,-27.343750
3569,-31.250000
3570,-31.250000
3571,-31.250000
3572,-31.250000
3573,-31.250000
3574,-31.250000
3575,-35.156250
3576,-35.156250
3577,-35.156250
3578,-35.156250
3579,-39.062500
3580,-39.062500
3581,-39.062500
3582,-39.062500
3583,-39.062500
3584,-39.062500
3585,-39.062500
3586,-42.968750
3587,-42.968750
3588,-42.968750
3589,-42.968750
3590,-46.875000
3591,-46.875000
3592,-46.875000
3593,-46.875000
3594,-46.875000
3595,-46.875000
3596,-50.781250
3597,-50.781250
3598,-50.781250
3599,-50.781250
3600,-50.781250
3601,-54.687500
3602,-54.687500
3603,-54.687500
3604,-54.687500
3605,-54.687500
3606,-54.687500
3607,-58.593750
3608,-58.593750
3609,-58.593750
3610,-58.593750
3611,-58.593750
3612,-58.593750
3613,-58.593750
3614,-62.500000
3615,-62.500000
3616,-62.500000
3617,-62.500000
3618,-66.406250
3619,-66.406250
3620,-66.406250
3621,-66.406250
3622,-66.406250
3623,-66.406250
3624,-70.312500
3625,-70.312500
3626,-70.312500
3627,-70.312500
3628,-70.312500
3629,-70.312500
3630,-70.312500
3631,-74.218750
3632,-74.218750
3633,-74.218750
3634,-74.218750
3635,-74.218750
3636,-78.125000
3637,-78.125000
3638,-78.125000
3639,-78.125000
3640,-78.125000
3641,-78.125000
3642,-82.031250
3643,-82.031250
3644,-82.031250
3645,-82.031250
3646,-82.031250
3647,-82.031250
3648,-82.031250
3649,-85.937500
3650,-85.937500
3651,-85.937500
3652,-85.937500
3653,-85.937500
3654,-85.937500
3655,-89.843750
3656,-89.843750
3657,-89.843750
3658,-89.843750
3659,-89.843750
3660,-93.750000
3661,-89.843750
3662,-93.750000
3663,-93.750000
3664,-93.750000
3665,-93.750000
3666,-93.750000
3667,-93.750000
3668,-97.656250
3669,-97.656250
3670,-97.656250
3671,-97.656250
3672,-97.656250
3673,-97.656250
3674,-97.656250
3675,-97.656250
3676,-101.562500
3677,-101.562500
3678,-101.562500
3679,-101.562500
3680,-101.562500
3681,-101.562500
3682,-101.562500
3683,-101.562500
3684,-101.562500
3685,-105.468750
3686,-105.468750
3687,-105.468750
3688,-105.468750
3689,-105.468750
3690,-105.468750
3691,-105.468750
3692,-105.468750
3693,-109.375000
3694,-109.375000
3695,-109.375000
3696,-109.375000
3697,-109.375000
3698,-109.375000
3699,-109.375000
3700,-109.375000
3701,-109.375000
3702,-109.375000
3703,-109.375000
3704,-113.281250
3705,-113.281250
3706,-113.281250
3707,-113.281250
3708,-113.281250
3709,-113.281250
3710,-113.281250
3711,-117.187500
3712,-113.281250
3713,-113.281250
3714,-117.187500
3715,-117.187500
3716,-117.187500
3717,-117.187500
3718,-117.187500
3719,-117.187500
3720,-117.187500
3721,-117.187500
3722,-117.187500
3723,-121.093750
3724,-121.093750
3725,-121.093750
3726,-121.093750
3727,-121.093750
3728,-121.093750
3729,-121.093750
3730,-121.093750
3731,-121.093750
3732,-121.093750
3733,-121.093750
3734,-121.093750
3735,-121.093750
3736,-121.093750
3737,-121.093750
3738,-121.093750
3739,-121.093750
3740,-125.000000
3741,-125.000000
3742,-125.000000
3743,-125.000000
3744,-125.000000
3745,-125.000000
3746,-125.000000
3747,-125.000000
3748,-125.000000
3749,-125.000000
3750,-125.000000
3751,-125.000000
3752,-125.000000
3753,-125.000000
3754,-125.000000
3755,-125.000000
3756,-125.000000
3757,-125.000000
3758,-128.906250
3759,-125.000000
3760,-128.906250
3761,-128.906250
3762,-128.906250
3763,-128.906250
3764,-128.906250
3765,-128.906250
3766,-128.906250
3767,-128.906250
3768,-128.906250
3769,-128.906250
3770,-128.906250
3771,-128.906250
3772,-128.906250
3773,-128.906250
3774,-128.906250
3775,-128.906250
3776,-128.906250
3777,-128.906250
3778,-128.906250
3779,-128.906250
3780,-128.906250
3781,-128.906250
3782,-128.906250
3783,-128.906250
3784,-128.906250
3785,-128.906250
3786,-128.906250
3787,-128.906250
3788,-128.906250
3789,-128.906250
3790,-128.906250
3791,-128.906250
3792,-128.906250
3793,-128.906250
3794,-128.906250
3795,-128.906250
3796,-128.906250
3797,-128.906250
3798,-128.906250
3799,-128.906250
3800,-128.906250
3801,-128.906250
3802,-128.906250
3803,-128.906250
3804,-128.906250
3805,-128.906250
3806,-128.906250
3807,-128.906250
3808,-128.906250
3809,-128.906250
3810,-128.906250
3811,-128.906250
3812,-128.906250
3813,-128.906250
3814,-128.906250
3815,-128.906250
3816,-125.000000
3817,-125.000000
3818,-125.000000
3819,-125.000000
3820,-125.000000
3821,-125.000000
3822,-125.000000
3823,-125.000000
3824,-125.000000
3825,-125.000000
3826,-125.000000
3827,-125.000000
3828,-125.000000
3829,-125.000000
3830,-125.000000
3831,-125.000000
3832,-125.000000
3833,-125.000000
3834,-125.000000
3835,-121.093750
3836,-121.093750
3837,-121.093750
3838,-121.093750
3839,-121.093750
3840,-121.093750
3841,-121.093750
3842,-121.093750
3843,-121.093750
3844,-121.093750
3845,-121.093750
3846,-121.093750
3847,-121.093750
3848,-117.187500
3849,-117.187500
3850,-117.187500
3851,-117.187500
3852,-117.187500
3853,-117.187500
3854,-117.187500
3855,-117.187500
3856,-117.187500
3857,-117.187500
3858,-117.187500
3859,-113.281250
3860,-113.281250
3861,-113.281250
3862,-113.281250
3863,-113.281250
3864,-113.281250
3865,-113.281250
3866,-113.281250
3867,-113.281250
3868,-113.281250
3869,-109.375000
3870,-109.375000
3871,-109.375000
3872,-109.375000
3873,-109.375000
3874,-109.375000
3875,-109.375000
3876,-109.375000
3877,-109.375000
3878,-109.375000
3879,-105.468750
3880,-105.468750
3881,-105.468750
3882,-105.468750
3883,-105.468750
3884,-105.468750
3885,-105.468750
3886,-105.468750
3887,-105.468750
3888,-101.562500
3889,-101.562500
3890,-101.562500
3891,-101.562500
3892,-101.562500
3893,-101.562500
3894,-101.562500
3895,-101.562500
3896,-97.656250
3897,-97.656250
3898,-97.656250
3899,-97.656250
3900,-97.656250
3901,-97.656250
3902,-97.656250
3903,-97.656250
3904,-93.750000
3905,-93.750000
3906,-93.750000
3907,-93.750000
3908,-93.750000
3909,-89.843750
3910,-89.843750
3911,-89.843750
3912,-89.843750
3913,-89.843750
3914,-89.843750
3915,-89.843750
3916,-89.843750
3917,-85.937500
3918,-85.937500
3919,-85.937500
3920,-85.937500
3921,-85.937500
3922,-85.937500
3923,-85.937500
3924,-82.031250
3925,-82.031250
3926,-82.031250
3927,-82.031250
3928,-82.031250
3929,-78.125000
3930,-82.031250
3931,-78.125000
3932,-78.125000
3933,-78.125000
3934,-78.125000
3935,-78.125000
3936,-74.218750
3937,-74.218750
3938,-74.218750
3939,-74.218750
3940,-74.218750
3941,-74.218750
3942,-74.218750
3943,-70.312500
3944,-70.312500
3945,-70.312500
3946,-70.312500
3947,-70.312500
3948,-66.406250
3949,-66.406250
3950,-66.406250
3951,-66.406250
3952,-66.406250
3953,-62.500000
3954,-62.500000
3955,-62.500000
3956,-62.500000
3957,-62.500000
3958,-62.500000
3959,-62.500000
3960,-58.593750
3961,-58.593750
3962,-58.593750
3963,-58.593750
3964,-58.593750
3965,-54.687500
3966,-54.687500
3967,-54.687500
3968,-54.687500
3969,-54.687500
3970,-54.687500
3971,-50.781250
3972,-50.781250
3973,-50.781250
3974,-50.781250
3975,-46.875000
3976,-46.875000
3977,-46.875000
3978,-46.875000
3979,-46.875000
3980,-46.875000
3981,-42.968750
3982,-42.968750
3983,-42.968750
3984,-42.968750
3985,-42.968750
3986,-42.968750
3987,-39.062500
3988,-39.062500
3989,-39.062500
3990,-39.062500
3991,-39.062500
3992,-35.156250
3993,-35.156250
3994,-35.156250
3995,-35.156250
3996,-35.156250
3997,-35.156250
3998,-31.250000
3999,-31.250000
4000,-31.250000
4001,-31.250000
4002,-31.250000
4003,-27.343750
4004,-27.343750
4005,-27.343750
4006,-27.343750
4007,-27.343750
4008,-23.437500
4009,-23.437500
4010,-23.437500
4011,-23.437500
4012,-23.437500
4013,-23.437500
4014,-19.531250
4015,-19.531250
4016,-19.531250
4017,-19.531250
4018,-15.625000
4019,-15.625000
4020,-15.625000
4021,-15.625000
4022,-15.625000
4023,-15.625000
4024,-11.718750
4025,-11.718750
4026,-11.718750
4027,-11.718750
4028,-11.718750
4029,-11.718750
4030,-7.812500
4031,-7.812500
4032,-7.812500
4033,-7.812500
4034,-7.812500
4035,-3.906250
4036,-3.906250
4037,-3.906250
4038,-3.906250
4039,-3.906250
4040,0.000000
4041,0.000000
4042,0.000000
4043,0.000000
4044,0.000000
4045,3.906250
4046,3.906250
4047,3.906250
4048,3.906250
4049,3.906250
4050,3.906250
4051,7.812500
4052,7.812500
4053,7.812500
4054,7.812500
4055,7.812500
4056,7.812500
4057,11.718750
4058,11.718750
4059,11.718750
4060,11.718750
4061,11.718750
4062,11.718750
4063,15.625000
4064,15.625000
4065,15.625000
4066,15.625000
4067,15.625000
4068,15.625000
4069,19.531250
4070,19.531250
4071,19.531250
4072,19.531250
4073,19.531250
4074,23.437500
4075,23.437500
4076,23.437500
4077,23.437500
4078,23.437500
4079,23.437500
4080,27.343750
4081,27.343750
4082,27.343750
4083,27.343750
4084,27.343750
4085,31.250000
4086,31.250000
4087,31.250000
4088,31.250000
4089,31.250000
4090,31.250000
4091,31.250000
4092,35.156250
4093,35.156250
4094,35.156250
4095,35.156250
4096,35.156250
4097,35.156250
4098,39.062500
4099,39.062500
4100,39.062500
4101,39.062500
4102,39.062500
4103,39.062500
4104,42.968750
4105,42.968750
4106,42.968750
4107,42.968750
4108,42.968750
4109,42.968750
4110,46.875000
4111,46.875000
4112,46.875000
4113,46.875000
4114,46.875000
4115,46.875000
4116,46.875000
4117,50.781250
4118,50.781250
4119,50.781250
4120,50.781250
4121,50.781250
4122,54.687500
4123,54.687500
4124,54.687500
4125,54.687500
4126,54.687500
4127,54.687500
4128,54.687500
4129,54.687500
4130,58.593750
4131,58.593750
4132,58.593750
4133,58.593750
4134,58.593750
4135,58.593750
4136,58.593750
4137,62.500000
4138,58.593750
4139,62.500000
4140,62.500000
4141,62.500000
4142,62.500000
4143,62.500000
4144,62.500000
4145,62.500000
4146,62.500000
4147,66.406250
4148,66.406250
4149,66.406250
4150,66.406250
4151,66.406250
4152,66.406250
4153,66.406250
4154,66.406250
4155,66.406250
4156,70.312500
4157,70.312500
4158,70.312500
4159,70.312500
4160,70.312500
4161,70.312500
4162,70.312500
4163,70.312500
4164,70.312500
4165,74.218750
4166,74.218750
4167,74.218750
4168,74.218750
4169,74.218750
4170,74.218750
4171,78.125000
4172,74.218750
4173,74.218750
4174,78.125000
4175,78.125000
4176,78.125000
4177,78.125000
4178,78.125000
4179,78.125000
4180,78.125000
4181,78.125000
4182,78.125000
4183,78.125000
4184,82.031250
4185,82.031250
4186,82.031250
4187,82.031250
4188,82.031250
4189,82.031250
4190,82.031250
4191,82.031250
4192,82.031250
4193,82.031250
4194,85.937500
4195,82.031250
4196,85.937500
4197,85.937500
4198,85.937500
4199,85.937500
4200,85.937500
4201,85.937500
4202,85.937500
4203,85.937500
4204,85.937500
4205,85.937500
4206,85.937500
4207,89.843750
4208,89.843750
4209,89.843750
4210,89.843750
4211,89.843750
4212,89.843750
4213,89.843750
4214,89.843750
4215,89.843750
4216,89.843750
4217,89.843750
4218,89.843750
4219,89.843750
4220,89.843750
4221,89.843750
4222,89.843750
4223,93.750000
4224,93.750000
4225,93.750000
4226,93.750000
4227,93.750000
4228,93.750000
4229,93.750000
4230,93.750000
4231,93.750000
4232,93.750000
4233,93.750000
4234,93.750000
4235,93.750000
4236,93.750000
4237,93.750000
4238,93.750000
4239,97.656250
4240,93.750000
4241,97.656250
4242,93.750000
4243,97.656250
4244,93.750000
4245,97.656250
4246,97.656250
4247,97.656250
4248,97.656250
4249,97.656250
4250,97.656250
4251,97.656250
4252,97.656250
4253,97.656250
4254,97.656250
4255,97.656250
4256,97.656250
4257,97.656250
4258,97.656250
4259,97.656250
4260,97.656250
4261,97.656250
4262,97.656250
4263,97.656250
4264,97.656250
4265,97.656250
4266,97.656250
4267,97.656250
4268,97.656250
4269,97.656250
4270,97.656250
4271,97.656250
4272,97.656250
4273,97.656250
4274,97.656250
4275,97.656250
4276,97.656250
4277,97.656250
4278,97.656250
4279,97.656250
4280,97.656250
4281,97.656250
4282,97.656250
4283,97.656250
4284,97.656250
4285,97.656250
4286,97.656250
4287,97.656250
4288,97.656250
4289,97.656250
4290,97.656250
4291,97.656250
4292,97.656250
4293,97.656250
4294,97.656250
4295,97.656250
4296,97.656250
4297,97.656250
4298,97.656250
4299,97.656250
4300,97.656250
4301,97.656250
4302,97.656250
4303,97.656250
4304,97.656250
4305,97.656250
4306,97.656250
4307,97.656250
4308,97.656250
4309,97.656250
4310,97.656250
4311,97.656250
4312,93.750000
4313,97.656250
4314,97.656250
4315,97.656250
4316,97.656250
4317,97.656250
4318,93.750000
4319,93.750000
4320,93.750000
4321,93.750000
4322,93.750000
4323,93.750000
4324,93.750000
4325,97.656250
4326,93.750000
4327,93.750000
4328,93.750000
4329,93.750000
4330,93.750000
4331,93.750000
4332,93.750000
4333,93.750000
4334,93.750000
4335,93.750000
4336,93.750000
4337,93.750000
4338,93.750000
4339,93.750000
4340,89.843750
4341,89.843750
4342,93.750000
4343,89.843750
4344,89.843750
4345,89.843750
4346,89.843750
4347,89.843750
4348,89.843750
4349,89.843750
4350,89.843750
4351,89.843750
4352,89.843750
4353,89.843750
4354,89.843750
4355,85.937500
4356,85.937500
4357,85.937500
4358,85.937500
4359,85.937500
4360,85.937500
4361,85.937500
4362,85.937500
4363,85.937500
4364,85.937500
4365,85.937500
4366,85.937500
4367,82.031250
4368,82.031250
4369,82.031250
4370,82.031250
4371,82.031250
4372,82.031250
4373,82.031250
4374,82.031250
4375,82.031250
4376,82.031250
4377,82.031250
4378,82.031250
4379,82.031250
4380,78.125000
4381,78.125000
4382,78.125000
4383,78.125000
4384,78.125000
4385,78.125000
4386,78.125000
4387,78.125000
4388,78.125000
4389,78.125000
4390,74.218750
4391,74.218750
4392,74.218750
4393,74.218750
4394,74.218750
4395,74.218750
4396,74.218750
4397,74.218750
4398,74.218750
4399,74.218750
4400,70.312500
4401,70.312500
4402,70.312500
4403,70.312500
4404,70.312500
4405,70.312500
4406,70.312500
4407,66.406250
4408,66.406250
4409,66.406250
4410,66.406250
4411,66.406250
4412,66.406250
4413,66.406250
4414,66.406250
4415,62.500000
4416,62.500000
4417,62.500000
4418,62.500000
4419,62.500000
4420,62.500000
4421,62.500000
4422,62.500000
4423,62.500000
4424,58.593750
4425,58.593750
4426,58.593750
4427,58.593750
4428,58.593750
4429,58.593750
4430,58.593750
4431,54.687500
4432,54.687500
4433,54.687500
4434,54.687500
4435,54.687500
4436,54.687500
4437,50.781250
4438,50.781250
4439,50.781250
4440,50.781250
4441,50.781250
4442,50.781250
4443,50.781250
4444,50.781250
4445,46.875000
4446,46.875000
4447,46.875000
4448,46.875000
4449,46.875000
4450,46.875000
4451,46.875000
4452,42.968750
4453,42.968750
4454,42.968750
4455,42.968750
4456,42.968750
4457,42.968750
4458,39.062500
4459,39.062500
4460,39.062500
4461,39.062500
4462,39.062500
4463,39.062500
4464,35.156250
4465,35.156250
4466,35.156250
4467,35.156250
4468,35.156250
4469,35.156250
4470,31.250000
4471,31.250000
4472,31.250000
4473,31.250000
4474,31.250000
4475,31.250000
4476,31.250000
4477,27.343750
4478,27.343750
4479,27.343750
4480,27.343750
4481,27.343750
4482,27.343750
4483,27.343750
4484,23.437500
4485,23.437500
4486,23.437500
4487,23.437500
4488,19.531250
4489,19.531250
4490,19.531250
4491,19.531250
4492,19.531250
4493,19.531250
4494,19.531250
4495,15.625000
4496,15.625000
4497,15.625000
4498,15.625000
4499,11.718750
4500,15.625000
4501,11.718750
4502,11.718750
4503,11.718750
4504,11.718750
4505,11.718750
4506,11.718750
4507,7.812500
4508,7.812500
4509,7.812500
4510,3.906250
4511,7.812500
4512,3.906250
4513,3.906250
4514,3.906250
4515,3.906250
4516,0.000000
4517,3.906250
4518,0.000000
4519,0.000000
4520,0.000000
4521,0.000000
4522,0.000000
4523,-3.906250
4524,-3.906250
4525,-3.906250
4526,-3.906250
4527,-3.906250
4528,-7.812500
4529,-7.812500
4530,-7.812500
4531,-7.812500
4532,-11.718750
4533,-11.718750
4534,-11.718750
4535,-11.718750
4536,-11.718750
4537,-11.718750
4538,-15.625000
4539,-15.625000
4540,-15.625000
4541,-15.625000
4542,-15.625000
4543,-19.531250
4544,-19.531250
4545,-19.531250
4546,-19.531250
4547,-19.531250
4548,-19.531250
4549,-23.437500
4550,-23.437500
4551,-23.437500
4552,-23.437500
4553,-23.437500
4554,-27.343750
4555,-27.343750
4556,-27.343750
4557,-27.343750
4558,-27.343750
4559,-31.250000
4560,-31.250000
4561,-31.250000
4562,-31.250000
4563,-31.250000
4564,-35.156250
4565,-35.156250
4566,-35.156250
4567,-35.156250
4568,-35.156250
4569,-39.062500
4570,-39.062500
4571,-39.062500
4572,-39.062500
4573,-39.062500
4574,-39.062500
4575,-39.062500
4576,-42.968750
4577,-42.968750
4578,-42.968750
4579,-42.968750
4580,-46.875000
4581,-46.875000
4582,-46.875000
4583,-46.875000
4584,-46.875000
4585,-46.875000
4586,-50.781250
4587,-50.781250
4588,-50.781250
4589,-50.781250
4590,-50.781250
4591,-54.687500
4592,-54.687500
4593,-54.687500
4594,-54.687500
4595,-54.687500
4596,-54.687500
4597,-58.593750
4598,-58.593750
4599,-58.593750
4600,-58.593750
4601,-62.500000
4602,-58.593750
4603,-62.500000
4604,-62.500000
4605,-62.500000
4606,-62.500000
4607,-62.500000
4608,-62.500000
4609,-66.406250
4610,-66.406250
4611,-66.406250
4612,-66.406250
4613,-66.406250
4614,-66.406250
4615,-66.406250
4616,-70.312500
4617,-70.312500
4618,-70.312500
4619,-74.218750
4620,-74.218750
4621,-74.218750
4622,-74.218750
4623,-74.218750
4624,-74.218750
4625,-74.218750
4626,-74.218750
4627,-74.218750
4628,-78.125000
4629,-78.125000
4630,-74.218750
4631,-78.125000
4632,-78.125000
4633,-85.937500
4634,-82.031250
4635,-82.031250
4636,-82.031250
4637,-82.031250
4638,-85.937500
4639,-85.937500
4640,-85.937500
4641,-85.937500
4642,-85.937500
4643,-85.937500
4644,-85.937500
4645,-89.843750
4646,-89.843750
4647,-89.843750
4648,-89.843750
4649,-89.843750
4650,-89.843750
4651,-89.843750
4652,-93.750000
4653,-93.750000
4654,-93.750000
4655,-93.750000
4656,-93.750000
4657,-93.750000
4658,-97.656250
4659,-97.656250
4660,-97.656250
4661,-97.656250
4662,-97.656250
4663,-97.656250
4664,-97.656250
4665,-97.656250
4666,-101.562500
4667,-101.562500
4668,-101.562500
4669,-101.562500
4670,-101.562500
4671,-105.468750
4672,-101.562500
4673,-105.468750
4674,-101.562500
4675,-105.468750
4676,-101.562500
4677,-105.468750
4678,-105.468750
4679,-105.468750
4680,-105.468750
4681,-105.468750
4682,-109.375000
4683,-109.375000
4684,-109.375000
4685,-109.375000
4686,-109.375000
4687,-109.375000
4688,-109.375000
4689,-109.375000
4690,-109.375000
4691,-109.375000
4692,-113.281250
4693,-113.281250
4694,-113.281250
4695,-113.281250
4696,-113.281250
4697,-113.281250
4698,-113.281250
4699,-113.281250
4700,-113.281250
4701,-117.187500
4702,-117.187500
4703,-117.187500
4704,-117.187500
4705,-117.187500
4706,-117.187500
4707,-117.187500
4708,-117.187500
4709,-117.187500
4710,-117.187500
4711,-117.187500
4712,-121.093750
4713,-121.093750
4714,-121.093750
4715,-121.093750
4716,-121.093750
4717,-121.093750
4718,-121.093750
4719,-121.093750
4720,-121.093750
4721,-121.093750
4722,-121.093750
4723,-125.000000
4724,-121.093750
4725,-121.093750
4726,-125.000000
4727,-121.093750
4728,-125.000000
4729,-125.000000
4730,-125.000000
4731,-125.000000
4732,-125.000000
4733,-125.000000
4734,-125.000000
4735,-125.000000
4736,-125.000000
4737,-125.000000
4738,-125.000000
4739,-125.000000
4740,-125.000000
4741,-125.000000
4742,-128.906250
4743,-128.906250
4744,-128.906250
4745,-125.000000
4746,-128.906250
4747,-128.906250
4748,-128.906250
4749,-128.906250
4750,-128.906250
4751,-128.906250
4752,-128.906250
4753,-128.906250
4754,-128.906250
4755,-128.906250
4756,-128.906250
4757,-128.906250
4758,-128.906250
4759,-128.906250
4760,-128.906250
4761,-128.906250
4762,-128.906250
4763,-128.906250
4764,-128.906250
4765,-128.906250
4766,-128.906250
4767,-128.906250
4768,-128.906250
4769,-128.906250
4770,-128.906250
4771,-128.906250
4772,-128.906250
4773,-128.906250
4774,-128.906250
4775,-128.906250
4776,-128.906250
4777,-128.906250
4778,-128.906250
4779,-128.906250
4780,-128.906250
4781,-128.906250
4782,-128.906250
4783,-128.906250
4784,-128.906250
4785,-128.906250
4786,-128.906250
4787,-128.906250
4788,-128.906250
4789,-128.906250
4790,-128.906250
4791,-128.906250
4792,-128.906250
4793,-128.906250
4794,-128.906250
4795,-128.906250
4796,-128.906250
4797,-128.906250
4798,-128.906250
4799,-128.906250
4800,-128.906250
4801,-128.906250
4802,-125.000000
4803,-128.906250
4804,-128.906250
4805,-125.000000
4806,-125.000000
4807,-125.000000
4808,-125.000000
4809,-125.000000
4810,-125.000000
4811,-125.000000
4812,-125.000000
4813,-125.000000
4814,-125.000000
4815,-125.000000
4816,-125.000000
4817,-125.000000
4818,-125.000000
4819,-125.000000
4820,-125.000000
4821,-125.000000
4822,-125.000000
4823,-125.000000
4824,-121.093750
4825,-121.093750
4826,-125.000000
4827,-121.093750
4828,-121.093750
4829,-121.093750
4830,-121.093750
4831,-121.093750
4832,-121.093750
4833,-121.093750
4834,-121.093750
4835,-121.093750
4836,-121.093750
4837,-121.093750
4838,-121.093750
4839,-121.093750
4840,-121.093750
4841,-117.187500
4842,-117.187500
4843,-117.187500
4844,-117.187500
4845,-117.187500
4846,-117.187500
4847,-117.187500
4848,-117.187500
4849,-117.187500
4850,-117.187500
4851,-117.187500
4852,-117.187500
4853,-113.281250
4854,-113.281250
4855,-113.281250
4856,-113.281250
4857,-113.281250
4858,-113.281250
4859,-113.281250
4860,-113.281250
4861,-109.375000
4862,-109.375000
4863,-109.375000
4864,-109.375000
4865,-109.375000
4866,-109.375000
4867,-109.375000
4868,-109.375000
4869,-109.375000
4870,-105.468750
4871,-105.468750
4872,-105.468750
4873,-105.468750
4874,-105.468750
4875,-105.468750
4876,-105.468750
4877,-101.562500
4878,-101.562500
4879,-101.562500
4880,-101.562500
4881,-101.562500
4882,-101.562500
4883,-101.562500
4884,-101.562500
4885,-101.562500
4886,-97.656250
4887,-97.656250
4888,-97.656250
4889,-97.656250
4890,-97.656250
4891,-97.656250
4892,-97.656250
4893,-97.656250
4894,-93.750000
4895,-93.750000
4896,-93.750000
4897,-93.750000
4898,-93.750000
4899,-93.750000
4900,-89.843750
4901,-89.843750
4902,-89.843750
4903,-89.843750
4904,-89.843750
4905,-85.937500
4906,-85.937500
4907,-85.937500
4908,-85.937500
4909,-85.937500
4910,-85.937500
4911,-85.937500
4912,-85.937500
4913,-85.937500
4914,-85.937500
4915,-82.031250
4916,-82.031250
4917,-82.031250
4918,-78.125000
4919,-78.125000
4920,-78.125000
4921,-78.125000
4922,-78.125000
4923,-78.125000
4924,-78.125000
4925,-78.125000
4926,-74.218750
4927,-74.218750
4928,-74.218750
4929,-74.218750
4930,-74.218750
4931,-70.312500
4932,-70.312500
4933,-70.312500
4934,-70.312500
4935,-70.312500
4936,-70.312500
4937,-66.406250
4938,-66.406250
4939,-66.406250
4940,-66.406250
4941,-66.406250
4942,-66.406250
4943,-62.500000
4944,-62.500000
4945,-62.500000
4946,-62.500000
4947,-62.500000
4948,-62.500000
4949,-58.593750
4950,-58.593750
4951,-58.593750
4952,-58.593750
4953,-54.687500
4954,-58.593750
4955,-58.593750
4956,-54.687500
4957,-54.687500
4958,-54.687500
4959,-54.687500
4960,-54.687500
4961,-50.781250
4962,-50.781250
4963,-50.781250
4964,-50.781250
4965,-50.781250
4966,-46.875000
4967,-46.875000
4968,-46.875000
4969,-46.875000
4970,-46.875000
4971,-42.968750
4972,-42.968750
4973,-42.968750
4974,-42.968750
4975,-42.968750
4976,-42.968750
4977,-39.062500
4978,-39.062500
4979,-39.062500
4980,-39.062500
4981,-39.062500
4982,-35.156250
4983,-35.156250
4984,-35.156250
4985,-35.156250
4986,-35.156250
4987,-31.250000
4988,-35.156250
4989,-31.250000
4990,-31.250000
4991,-31.250000
4992,-27.343750
4993,-27.343750
4994,-27.343750
4995,-27.343750
4996,-27.343750
4997,-27.343750
4998,-23.437500
4999,-23.437500
5000,-23.437500
5001,-23.437500
5002,-23.437500
5003,-19.531250
5004,-19.531250
5005,-19.531250
5006,-19.531250
5007,-19.531250
5008,-19.531250
5009,-15.625000
5010,-15.625000
5011,-15.625000
5012,-15.625000
5013,-15.625000
5014,-11.718750
5015,-11.718750
5016,-15.625000
5017,-11.718750
5018,-11.718750
5019,-7.812500
5020,-7.812500
5021,-7.812500
5022,-7.812500
5023,-7.812500
5024,-3.906250
5025,-3.906250
5026,-3.906250
5027,-3.906250
5028,-3.906250
5029,-3.906250
5030,0.000000
5031,0.000000
5032,0.000000
5033,0.000000
5034,0.000000
5035,3.906250
5036,3.906250
5037,3.906250
5038,3.906250
5039,3.906250
5040,7.812500
5041,7.812500
5042,7.812500
5043,7.812500
5044,7.812500
5045,7.812500
5046,11.718750
5047,11.718750
5048,11.718750
5049,11.718750
5050,11.718750
5051,15.625000
5052,15.625000
5053,15.625000
5054,15.625000
5055,15.625000
5056,15.625000
5057,19.531250
5058,19.531250
5059,19.531250
5060,19.531250
5061,19.531250
5062,23.437500
5063,19.531250
5064,23.437500
5065,23.437500
5066,23.437500
5067,23.437500
5068,23.437500
5069,27.343750
5070,27.343750
5071,27.343750
5072,27.343750
5073,27.343750
5074,31.250000
5075,31.250000
5076,31.250000
5077,31.250000
5078,31.250000
5079,31.250000
5080,31.250000
5081,35.156250
5082,35.156250
5083,35.156250
5084,35.156250
5085,35.156250
5086,35.156250
5087,35.156250
5088,39.062500
5089,39.062500
5090,39.062500
5091,39.062500
5092,39.062500
5093,42.968750
5094,42.968750
5095,42.968750
5096,42.968750
5097,42.968750
5098,42.968750
5099,42.968750
5100,46.875000
5101,46.875000
5102,46.875000
5103,46.875000
5104,46.875000
5105,46.875000
5106,46.875000
5107,50.781250
5108,50.781250
5109,50.781250
5110,50.781250
5111,50.781250
5112,50.781250
5113,50.781250
5114,54.687500
5115,54.687500
5116,54.687500
5117,54.687500
5118,54.687500
5119,54.687500
5120,54.687500
5121,58.593750
5122,58.593750
5123,58.593750
5124,58.593750
5125,58.593750
5126,58.593750
5127,62.500000
5128,62.500000
5129,62.500000
5130,62.500000
5131,62.500000
5132,62.500000
5133,62.500000
5134,62.500000
5135,62.500000
5136,66.406250
5137,66.406250
5138,66.406250
5139,66.406250
5140,66.406250
5141,66.406250
5142,66.406250
5143,66.406250
5144,66.406250
5145,70.312500
5146,70.312500
5147,70.312500
5148,70.312500
5149,70.312500
5150,70.312500
5151,70.312500
5152,74.218750
5153,74.218750
5154,74.218750
5155,74.218750
5156,74.218750
5157,74.218750
5158,74.218750
5159,74.218750
5160,74.218750
5161,74.218750
5162,78.125000
5163,78.125000
5164,74.218750
5165,78.125000
5166,78.125000
5167,78.125000
5168,78.125000
5169,78.125000
5170,78.125000
5171,78.125000
5172,78.125000
5173,82.031250
5174,82.031250
5175,82.031250
5176,82.031250
5177,82.031250
5178,82.031250
5179,82.031250
5180,82.031250
5181,82.031250
5182,82.031250
5183,85.937500
5184,82.031250
5185,85.937500
5186,85.937500
5187,85.937500
5188,85.937500
5189,85.937500
5190,85.937500
5191,85.937500
5192,85.937500
5193,85.937500
5194,85.937500
5195,85.937500
5196,85.937500
5197,85.937500
5198,89.843750
5199,89.843750
5200,89.843750
5201,89.843750
5202,89.843750
5203,89.843750
5204,89.843750
5205,89.843750
5206,89.843750
5207,89.843750
5208,89.843750
5209,89.843750
5210,89.843750
5211,93.750000
5212,89.843750
5213,93.750000
5214,93.750000
5215,93.750000
5216,93.750000
5217,93.750000
5218,93.750000
5219,93.750000
5220,93.750000
5221,93.750000
5222,93.750000
5223,93.750000
5224,93.750000
5225,93.750000
5226,93.750000
5227,93.750000
5228,93.750000
5229,93.750000
5230,93.750000
5231,93.750000
5232,93.750000
5233,97.656250
5234,93.750000
5235,97.656250
5236,97.656250
5237,97.656250
5238,97.656250
5239,97.656250
5240,97.656250
5241,97.656250
5242,97.656250
5243,97.656250
5244,97.656250
5245,97.656250
5246,97.656250
5247,97.656250
5248,97.656250
5249,97.656250
5250,97.656250
5251,97.656250
5252,97.656250
5253,97.656250
5254,97.656250
5255,97.656250
5256,97.656250
5257,97.656250
5258,97.656250
5259,97.656250
5260,97.656250
5261,97.656250
5262,97.656250
5263,97.656250
5264,97.656250
5265,97.656250
5266,97.656250
5267,97.656250
5268,97.656250
5269,97.656250
5270,97.656250
5271,97.656250
5272,97.656250
5273,97.656250
5274,97.656250
5275,97.656250
5276,97.656250
5277,97.656250
5278,97.656250
5279,97.656250
5280,97.656250
5281,97.656250
5282,97.656250
5283,97.656250
5284,97.656250
5285,97.656250
5286,97.656250
5287,97.656250
5288,97.656250
5289,97.656250
5290,97.656250
5291,97.656250
5292,97.656250
5293,97.656250
5294,97.656250
5295,97.656250
5296,97.656250
5297,97.656250
5298,97.656250
5299,97.656250
5300,97.656250
5301,97.656250
5302,97.656250
5303,97.656250
5304,97.656250
5305,97.656250
5306,97.656250
5307,97.656250
5308,93.750000
5309,97.656250
5310,93.750000
5311,93.750000
5312,97.656250
5313,93.750000
5314,93.750000
5315,93.750000
5316,93.750000
5317,93.750000
5318,93.750000
5319,93.750000
5320,93.750000
5321,93.750000
5322,93.750000
5323,93.750000
5324,93.750000
5325,93.750000
5326,93.750000
5327,93.750000
5328,89.843750
5329,93.750000
5330,93.750000
5331,89.843750
5332,89.843750
5333,89.843750
5334,89.843750
5335,89.843750
5336,89.843750
5337,89.843750
5338,89.843750
5339,89.843750
5340,89.843750
5341,89.843750
5342,89.843750
5343,89.843750
5344,89.843750
5345,89.843750
5346,85.937500
5347,85.937500
5348,85.937500
5349,85.937500
5350,85.937500
5351,85.937500
5352,85.937500
5353,85.937500
5354,85.937500
5355,85.937500
5356,85.937500
5357,85.937500
5358,82.031250
5359,82.031250
5360,82.031250
5361,82.031250
5362,82.031250
5363,82.031250
5364,82.031250
5365,82.031250
5366,82.031250
5367,82.031250
5368,78.125000
5369,82.031250
5370,78.125000
5371,78.125000
5372,78.125000
5373,78.125000
5374,78.125000
5375,78.125000
5376,78.125000
5377,78.125000
5378,78.125000
5379,78.125000
5380,74.218750
5381,74.218750
5382,74.218750
5383,74.218750
5384,74.218750
5385,74.218750
5386,74.218750
5387,74.218750
5388,70.312500
5389,70.312500
5390,70.312500
5391,70.312500
5392,70.312500
5393,70.312500
5394,70.312500
5395,70.312500
5396,70.312500
5397,66.406250
5398,66.406250
5399,66.406250
5400,66.406250
5401,66.406250
5402,66.406250
5403,66.406250
5404,66.406250
5405,66.406250
5406,62.500000
5407,62.500000
5408,62.500000
5409,62.500000
5410,62.500000
5411,62.500000
5412,62.500000
5413,62.500000
5414,58.593750
5415,58.593750
5416,58.593750
5417,58.593750
5418,58.593750
5419,58.593750
5420,54.687500
5421,54.687500
5422,54.687500
5423,54.687500
5424,54.687500
5425,54.687500
5426,54.687500
5427,54.687500
5428,50.781250
5429,50.781250
5430,50.781250
5431,50.781250
5432,50.781250
5433,50.781250
5434,46.875000
5435,46.875000
5436,46.875000
5437,46.875000
5438,46.875000
5439,46.875000
5440,46.875000
5441,46.875000
5442,42.968750
5443,42.968750
5444,42.968750
5445,42.968750
5446,42.968750
5447,42.968750
5448,39.062500
5449,39.062500
5450,39.062500
5451,39.062500
5452,39.062500
5453,39.062500
5454,35.156250
5455,35.156250
5456,35.156250
5457,35.156250
5458,35.156250
5459,35.156250
5460,35.156250
5461,31.250000
5462,31.250000
5463,31.250000
5464,31.250000
5465,31.250000
5466,27.343750
5467,27.343750
5468,27.343750
5469,27.343750
5470,27.343750
5471,27.343750
5472,23.437500
5473,23.437500
5474,23.437500
5475,23.437500
5476,23.437500
5477,19.531250
5478,19.531250
5479,19.531250
5480,19.531250
5481,19.531250
5482,19.531250
5483,15.625000
5484,15.625000
5485,15.625000
5486,15.625000
5487,15.625000
5488,11.718750
5489,11.718750
5490,11.718750
5491,11.718750
5492,11.718750
5493,11.718750
5494,11.718750
5495,7.812500
5496,7.812500
5497,7.812500
5498,7.812500
5499,7.812500
5500,3.906250
5501,3.906250
5502,3.906250
5503,3.906250
5504,3.906250
5505,3.906250
5506,0.000000
5507,0.000000
5508,0.000000
5509,0.000000
5510,0.000000
5511,-3.906250
5512,-3.906250
5513,-3.906250
5514,-3.906250
5515,-3.906250
5516,-7.812500
5517,-7.812500
5518,-7.812500
5519,-7.812500
5520,-7.812500
5521,-11.718750
5522,-11.718750
5523,-11.718750
5524,-11.718750
5525,-11.718750
5526,-11.718750
5527,-15.625000
5528,-15.625000
5529,-15.625000
5530,-15.625000
5531,-15.625000
5532,-19.531250
5533,-19.531250
5534,-19.531250
5535,-19.531250
5536,-19.531250
5537,-19.531250
5538,-23.437500
5539,-23.437500
5540,-23.437500
5541,-23.437500
5542,-27.343750
5543,-27.343750
5544,-27.343750
5545,-27.343750
5546,-27.343750
5547,-27.343750
5548,-31.250000
5549,-31.250000
5550,-31.250000
5551,-31.250000
5552,-31.250000
5553,-31.250000
5554,-31.250000
5555,-35.156250
5556,-35.156250
5557,-35.156250
5558,-35.156250
5559,-39.062500
5560,-39.062500
5561,-39.062500
5562,-39.062500
5563,-39.062500
5564,-39.062500
5565,-42.968750
5566,-42.968750
5567,-42.968750
5568,-42.968750
5569,-42.968750
5570,-46.875000
5571,-46.875000
5572,-46.875000
5573,-46.875000
5574,-46.875000
5575,-46.875000
5576,-50.781250
5577,-50.781250
5578,-50.781250
5579,-50.781250
5580,-54.687500
5581,-54.687500
5582,-54.687500
5583,-54.687500
5584,-54.687500
5585,-54.687500
5586,-54.687500
5587,-58.593750
5588,-58.593750
5589,-58.593750
5590,-58.593750
5591,-62.500000
5592,-62.500000
5593,-62.500000
5594,-62.500000
5595,-62.500000
5596,-62.500000
5597,-66.406250
5598,-66.406250
5599,-66.406250
5600,-66.406250
5601,-66.406250
5602,-66.406250
5603,-70.312500
5604,-70.312500
5605,-70.312500
5606,-70.312500
5607,-70.312500
5608,-70.312500
5609,-74.218750
5610,-74.218750
5611,-74.218750
5612,-74.218750
5613,-74.218750
5614,-74.218750
5615,-78.125000
5616,-78.125000
5617,-78.125000
5618,-78.125000
5619,-78.125000
5620,-78.125000
5621,-82.031250
5622,-82.031250
5623,-82.031250
5624,-82.031250
5625,-82.031250
5626,-82.031250
5627,-85.937500
5628,-85.937500
5629,-85.937500
5630,-85.937500
5631,-85.937500
5632,-85.937500
5633,-85.937500
5634,-89.843750
5635,-89.843750
5636,-89.843750
5637,-89.843750
5638,-89.843750
5639,-89.843750
5640,-89.843750
5641,-89.843750
5642,-93.750000
5643,-93.750000
5644,-93.750000
5645,-93.750000
5646,-93.750000
5647,-93.750000
5648,-97.656250
5649,-97.656250
5650,-97.656250
5651,-97.656250
5652,-97.656250
5653,-97.656250
5654,-97.656250
5655,-97.656250
5656,-97.656250
5657,-101.562500
5658,-101.562500
5659,-101.562500
5660,-101.562500
5661,-101.562500
5662,-101.562500
5663,-105.468750
5664,-105.468750
5665,-105.468750
5666,-105.468750
5667,-105.468750
5668,-105.468750
5669,-105.468750
5670,-105.468750
5671,-109.375000
5672,-105.468750
5673,-109.375000
5674,-109.375000
5675,-109.375000
5676,-109.375000
5677,-109.375000
5678,-109.375000
5679,-109.375000
5680,-109.375000
5681,-113.281250
5682,-113.281250
5683,-113.281250
5684,-113.281250
5685,-113.281250
5686,-113.281250
5687,-117.187500
5688,-113.281250
5689,-113.281250
5690,-113.281250
5691,-113.281250
5692,-117.187500
5693,-117.187500
5694,-117.187500
5695,-117.187500
5696,-117.187500
5697,-117.187500
5698,-117.187500
5699,-117.187500
5700,-117.187500
5701,-117.187500
5702,-121.093750
5703,-121.093750
5704,-121.093750
5705,-117.187500
5706,-121.093750
5707,-121.093750
5708,-121.093750
5709,-121.093750
5710,-121.093750
5711,-121.093750
5712,-121.093750
5713,-121.093750
5714,-121.093750
5715,-125.000000
5716,-125.000000
5717,-121.093750
5718,-125.000000
5719,-125.000000
5720,-125.000000
5721,-125.000000
5722,-125.000000
5723,-125.000000
5724,-125.000000
5725,-125.000000
5726,-125.000000
5727,-125.000000
5728,-125.000000
5729,-125.000000
5730,-125.000000
5731,-125.000000
5732,-125.000000
5733,-125.000000
5734,-128.906250
5735,-128.906250
5736,-128.906250
5737,-128.906250
5738,-128.906250
5739,-128.906250
5740,-128.906250
5741,-128.906250
5742,-128.906250
5743,-128.906250
5744,-128.906250
5745,-128.906250
5746,-128.906250
5747,-128.906250
5748,-128.906250
5749,-128.906250
5750,-128.906250
5751,-128.906250
5752,-128.906250
5753,-128.906250
5754,-128.906250
5755,-128.906250
5756,-128.906250
5757,-128.906250
5758,-128.906250
5759,-128.906250
5760,-128.906250
5761,-128.906250
5762,-128.906250
5763,-128.906250
5764,-128.906250
5765,-128.906250
5766,-128.906250
5767,-128.906250
5768,-128.906250
5769,-128.906250
5770,-128.906250
5771,-128.906250
5772,-128.906250
5773,-128.906250
5774,-128.906250
5775,-128.906250
5776,-128.906250
5777,-128.906250
5778,-128.906250
5779,-128.906250
5780,-128.906250
5781,-128.906250
5782,-128.906250
5783,-128.906250
5784,-128.906250
5785,-128.906250
5786,-128.906250
5787,-128.906250
5788,-128.906250
5789,-125.000000
5790,-125.000000
5791,-128.906250
5792,-128.906250
5793,-128.906250
5794,-128.906250
5795,-128.906250
5796,-128.906250
5797,-125.000000
5798,-128.906250
5799,-125.000000
5800,-125.000000
5801,-125.000000
5802,-125.000000
5803,-125.000000
5804,-125.000000
5805,-125.000000
5806,-125.000000
5807,-125.000000
5808,-125.000000
5809,-125.000000
5810,-125.000000
5811,-125.000000
5812,-125.000000
5813,-121.093750
5814,-121.093750
5815,-121.093750
5816,-121.093750
5817,-121.093750
5818,-121.093750
5819,-121.093750
5820,-121.093750
5821,-121.093750
5822,-121.093750
5823,-121.093750
5824,-121.093750
5825,-121.093750
5826,-121.093750
5827,-121.093750
5828,-117.187500
5829,-117.187500
5830,-117.187500
5831,-117.187500
5832,-117.187500
5833,-117.187500
5834,-117.187500
5835,-117.187500
5836,-117.187500
5837,-117.187500
5838,-113.281250
5839,-113.281250
5840,-113.281250
5841,-113.281250
5842,-113.281250
5843,-113.281250
5844,-113.281250
5845,-113.281250
5846,-113.281250
5847,-109.375000
5848,-113.281250
5849,-109.375000
5850,-109.375000
5851,-109.375000
5852,-109.375000
5853,-109.375000
5854,-109.375000
5855,-109.375000
5856,-109.375000
5857,-109.375000
5858,-109.375000
5859,-105.468750
5860,-105.468750
5861,-105.468750
5862,-105.468750
5863,-105.468750
5864,-105.468750
5865,-105.468750
5866,-105.468750
5867,-105.468750
5868,-101.562500
5869,-105.468750
5870,-101.562500
5871,-101.562500
5872,-101.562500
5873,-101.562500
5874,-101.562500
5875,-101.562500
5876,-97.656250
5877,-97.656250
5878,-97.656250
5879,-97.656250
5880,-97.656250
5881,-97.656250
5882,-97.656250
5883,-93.750000
5884,-93.750000
5885,-93.750000
5886,-93.750000
5887,-93.750000
5888,-93.750000
5889,-93.750000
5890,-89.843750
5891,-89.843750
5892,-89.843750
5893,-89.843750
5894,-89.843750
5895,-85.937500
5896,-85.937500
5897,-85.937500
5898,-85.937500
5899,-85.937500
5900,-85.937500
5901,-85.937500
5902,-85.937500
5903,-85.937500
5904,-82.031250
5905,-82.031250
5906,-82.031250
5907,-82.031250
5908,-82.031250
5909,-78.125000
5910,-78.125000
5911,-78.125000
5912,-78.125000
5913,-78.125000
5914,-78.125000
5915,-78.125000
5916,-74.218750
5917,-74.218750
5918,-74.218750
5919,-74.218750
5920,-74.218750
5921,-70.312500
5922,-70.312500
5923,-70.312500
5924,-70.312500
5925,-70.312500
5926,-70.312500
5927,-66.406250
5928,-66.406250
5929,-66.406250
5930,-66.406250
5931,-66.406250
5932,-66.406250
5933,-62.500000
5934,-62.500000
5935,-62.500000
5936,-62.500000
5937,-62.500000
5938,-58.593750
5939,-58.593750
5940,-58.593750
5941,-58.593750
5942,-58.593750
5943,-58.593750
5944,-58.593750
5945,-54.687500
5946,-54.687500
5947,-54.687500
5948,-54.687500
5949,-54.687500
5950,-50.781250
5951,-50.781250
5952,-50.781250
5953,-50.781250
5954,-50.781250
5955,-50.781250
5956,-46.875000
5957,-46.875000
5958,-46.875000
5959,-46.875000
5960,-42.968750
5961,-46.875000
5962,-42.968750
5963,-42.968750
5964,-42.968750
5965,-42.968750
5966,-39.062500
5967,-39.062500
5968,-39.062500
5969,-39.062500
5970,-39.062500
5971,-39.062500
5972,-35.156250
5973,-35.156250
5974,-35.156250
5975,-35.156250
5976,-35.156250
5977,-31.250000
5978,-31.250000
5979,-31.250000
5980,-31.250000
5981,-31.250000
5982,-31.250000
5983,-27.343750
5984,-27.343750
5985,-27.343750
5986,-27.343750
5987,-23.437500
5988,-23.437500
5989,-23.437500
5990,-23.437500
5991,-23.437500
5992,-23.437500
5993,-23.437500
5994,-19.531250
5995,-19.531250
5996,-19.531250
5997,-19.531250
5998,-15.625000
5999,-15.625000
6000,-15.625000
6001,-15.625000
6002,-15.625000
6003,-15.625000
6004,-11.718750
6005,-11.718750
6006,-11.718750
6007,-11.718750
6008,-11.718750
6009,-11.718750
6010,-7.812500
6011,-7.812500
6012,-7.812500
6013,-7.812500
6014,-7.812500
6015,-3.906250
6016,-3.906250
6017,-3.906250
6018,-3.906250
6019,-3.906250
6020,0.000000
6021,-3.906250
6022,0.000000
6023,0.000000
6024,0.000000
6025,3.906250
6026,3.906250
6027,3.906250
6028,3.906250
6029,7.812500
6030,7.812500
6031,7.812500
6032,7.812500
6033,7.812500
6034,7.812500
6035,7.812500
6036,11.718750
6037,11.718750
6038,11.718750
6039,11.718750
6040,11.718750
6041,11.718750
6042,15.625000
6043,15.625000
6044,15.625000
6045,15.625000
6046,19.531250
6047,19.531250
6048,19.531250
6049,19.531250
6050,19.531250
6051,19.531250
6052,23.437500
6053,23.437500
6054,23.437500
6055,23.437500
6056,23.437500
6057,23.437500
6058,23.437500
6059,27.343750
6060,27.343750
6061,27.343750
6062,27.343750
6063,27.343750
6064,27.343750
6065,31.250000
6066,31.250000
6067,31.250000
6068,31.250000
6069,31.250000
6070,35.156250
6071,35.156250
6072,35.156250
6073,35.156250
6074,35.156250
6075,35.156250
6076,35.156250
6077,39.062500
6078,39.062500
6079,39.062500
6080,39.062500
6081,39.062500
6082,39.062500
6083,42.968750
6084,42.968750
6085,42.968750
6086,42.968750
6087,42.968750
6088,46.875000
6089,46.875000
6090,46.875000
6091,46.875000
6092,46.875000
6093,46.875000
6094,46.875000
6095,46.875000
6096,46.875000
6097,50.781250
6098,50.781250
6099,50.781250
6100,50.781250
6101,50.781250
6102,50.781250
6103,54.687500
6104,54.687500
6105,54.687500
6106,54.687500
6107,54.687500
6108,54.687500
6109,54.687500
6110,54.687500
6111,58.593750
6112,58.593750
6113,58.593750
6114,58.593750
6115,58.593750
6116,58.593750
6117,62.500000
6118,58.593750
6119,62.500000
6120,62.500000
6121,62.500000
6122,62.500000
6123,62.500000
6124,62.500000
6125,62.500000
6126,66.406250
6127,66.406250
6128,66.406250
6129,66.406250
6130,66.406250
6131,66.406250
6132,66.406250
6133,66.406250
6134,66.406250
6135,70.312500
6136,70.312500
6137,70.312500
6138,70.312500
6139,70.312500
6140,70.312500
6141,74.218750
6142,70.312500
6143,74.218750
6144,74.218750
6145,74.218750
6146,74.218750
6147,74.218750
6148,74.218750
6149,74.218750
6150,74.218750
6151,74.218750
6152,78.125000
6153,78.125000
6154,78.125000
6155,78.125000
6156,78.125000
6157,78.125000
6158,78.125000
6159,78.125000
6160,78.125000
6161,78.125000
6162,82.031250
6163,82.031250
6164,82.031250
6165,82.031250
6166,82.031250
6167,82.031250
6168,82.031250
6169,82.031250
6170,82.031250
6171,82.031250
6172,85.937500
6173,85.937500
6174,85.937500
6175,85.937500
6176,82.031250
6177,82.031250
6178,85.937500
6179,85.937500
6180,85.937500
6181,85.937500
6182,85.937500
6183,85.937500
6184,85.937500
6185,85.937500
6186,89.843750
6187,89.843750
6188,89.843750
6189,89.843750
6190,89.843750
6191,89.843750
6192,89.843750
6193,89.843750
6194,89.843750
6195,89.843750
6196,89.843750
6197,89.843750
6198,89.843750
6199,89.843750
6200,89.843750
6201,89.843750
6202,89.843750
6203,89.843750
6204,93.750000
6205,93.750000
6206,93.750000
6207,93.750000
6208,93.750000
6209,93.750000
6210,93.750000
6211,93.750000
6212,93.750000
6213,93.750000
6214,93.750000
6215,93.750000
6216,93.750000
6217,93.750000
6218,93.750000
6219,93.750000
6220,93.750000
6221,93.750000
6222,93.750000
6223,97.656250
6224,93.750000
6225,97.656250
6226,93.750000
6227,93.750000
6228,97.656250
6229,97.656250
6230,97.656250
6231,97.656250
6232,97.656250
6233,97.656250
6234,97.656250
6235,97.656250
6236,97.656250
6237,97.656250
6238,97.656250
6239,97.656250
6240,97.656250
6241,97.656250
6242,97.656250
6243,97.656250
6244,97.656250
6245,97.656250
6246,97.656250
6247,97.656250
6248,97.656250
6249,97.656250
6250,97.656250
6251,97.656250
6252,97.656250
6253,97.656250
6254,97.656250
6255,97.656250
6256,97.656250
6257,97.656250
6258,97.656250
6259,97.656250
6260,97.656250
6261,97.656250
6262,97.656250
6263,97.656250
6264,97.656250
6265,97.656250
6266,97.656250
6267,97.656250
6268,97.656250
6269,97.656250
6270,97.656250
6271,97.656250
6272,97.656250
6273,97.656250
6274,97.656250
6275,97.656250
6276,97.656250
6277,97.656250
6278,97.656250
6279,97.656250
6280,97.656250
6281,97.656250
6282,97.656250
6283,97.656250
6284,97.656250
6285,97.656250
6286,97.656250
6287,97.656250
6288,97.656250
6289,97.656250
6290,97.656250
6291,97.656250
6292,97.656250
6293,93.750000
6294,93.750000
6295,97.656250
6296,93.750000
6297,93.750000
6298,93.750000
6299,93.750000
6300,97.656250
6301,93.750000
6302,93.750000
6303,93.750000
6304,93.750000
6305,93.750000
6306,93.750000
6307,93.750000
6308,93.750000
6309,93.750000
6310,93.750000
6311,93.750000
6312,93.750000
6313,93.750000
6314,93.750000
6315,93.750000
6316,93.750000
6317,93.750000
6318,89.843750
6319,89.843750
6320,89.843750
6321,89.843750
6322,89.843750
6323,89.843750
6324,89.843750
6325,89.843750
6326,89.843750
6327,89.843750
6328,89.843750
6329,89.843750
6330,89.843750
6331,89.843750
6332,89.843750
6333,85.937500
6334,85.937500
6335,85.937500
6336,85.937500
6337,85.937500
6338,85.937500
6339,85.937500
6340,85.937500
6341,85.937500
6342,85.937500
6343,85.937500
6344,85.937500
6345,85.937500
6346,85.937500
6347,85.937500
6348,82.031250
6349,82.031250
6350,82.031250
6351,82.031250
6352,82.031250
6353,82.031250
6354,82.031250
6355,82.031250
6356,82.031250
6357,82.031250
6358,82.031250
6359,82.031250
6360,78.125000
6361,78.125000
6362,78.125000
6363,78.125000
6364,78.125000
6365,78.125000
6366,78.125000
6367,78.125000
6368,78.125000
6369,78.125000
6370,74.218750
6371,74.218750
6372,74.218750
6373,74.218750
6374,74.218750
6375,74.218750
6376,74.218750
6377,74.218750
6378,70.312500
6379,70.312500
6380,70.312500
6381,70.312500
6382,70.312500
6383,70.312500
6384,70.312500
6385,70.312500
6386,66.406250
6387,66.406250
6388,66.406250
6389,66.406250
6390,66.406250
6391,66.406250
6392,66.406250
6393,66.406250
6394,62.500000
6395,62.500000
6396,62.500000
6397,62.500000
6398,62.500000
6399,62.500000
6400,62.500000
6401,62.500000
6402,58.593750
6403,58.593750
6404,58.593750
6405,58.593750
6406,58.593750
6407,58.593750
6408,58.593750
6409,54.687500
6410,54.687500
6411,54.687500
6412,54.687500
6413,54.687500
6414,54.687500
6415,54.687500
6416,54.687500
6417,54.687500
6418,50.781250
6419,50.781250
6420,50.781250
6421,50.781250
6422,50.781250
6423,50.781250
6424,46.875000
6425,46.875000
6426,46.875000
6427,46.875000
6428,46.875000
6429,46.875000
6430,46.875000
6431,42.968750
6432,42.968750
6433,42.968750
6434,42.968750
6435,42.968750
6436,39.062500
6437,39.062500
6438,39.062500
6439,39.062500
6440,39.062500
6441,39.062500
6442,39.062500
6443,39.062500
6444,35.156250
6445,35.156250
6446,35.156250
6447,35.156250
6448,35.156250
6449,35.156250
6450,35.156250
6451,31.250000
6452,31.250000
6453,31.250000
6454,31.250000
6455,27.343750
6456,27.343750
6457,27.343750
6458,27.343750
6459,27.343750
6460,27.343750
6461,27.343750
6462,27.343750
6463,23.437500
6464,23.437500
6465,23.437500
6466,23.437500
6467,23.437500
6468,19.531250
6469,19.531250
6470,19.531250
6471,19.531250
6472,19.531250
6473,19.531250
6474,15.625000
6475,15.625000
6476,15.625000
6477,15.625000
6478,11.718750
6479,11.718750
6480,11.718750
6481,11.718750
6482,11.718750
6483,11.718750
6484,7.812500
6485,7.812500
6486,7.812500
6487,7.812500
6488,7.812500
6489,7.812500
6490,3.906250
6491,3.906250
6492,3.906250
6493,3.906250
6494,3.906250
6495,0.000000
6496,0.000000
6497,0.000000
6498,0.000000
6499,0.000000
6500,0.000000
6501,-3.906250
6502,-3.906250
6503,-3.906250
6504,-3.906250
6505,-3.906250
6506,-7.812500
6507,-7.812500
6508,-7.812500
6509,-7.812500
6510,-7.812500
6511,-7.812500
6512,-11.718750
6513,-11.718750
6514,-11.718750
6515,-11.718750
6516,-11.718750
6517,-15.625000
6518,-15.625000
6519,-15.625000
6520,-15.625000
6521,-15.625000
6522,-19.531250
6523,-19.531250
6524,-19.531250
6525,-19.531250
6526,-19.531250
6527,-23.437500
6528,-23.437500
6529,-23.437500
6530,-23.437500
6531,-23.437500
6532,-23.437500
6533,-27.343750
6534,-27.343750
6535,-27.343750
6536,-27.343750
6537,-27.343750
6538,-31.250000
6539,-31.250000
6540,-31.250000
6541,-31.250000
6542,-31.250000
6543,-31.250000
6544,-35.156250
6545,-35.156250
6546,-35.156250
6547,-35.156250
6548,-35.156250
6549,-39.062500
6550,-39.062500
6551,-39.062500
6552,-39.062500
6553,-39.062500
6554,-42.968750
6555,-42.968750
6556,-42.968750
6557,-42.968750
6558,-46.875000
6559,-46.875000
6560,-46.875000
6561,-46.875000
6562,-46.875000
6563,-46.875000
6564,-50.781250
6565,-50.781250
6566,-50.781250
6567,-50.781250
6568,-50.781250
6569,-50.781250
6570,-54.687500
6571,-54.687500
6572,-54.687500
6573,-54.687500
6574,-54.687500
6575,-54.687500
6576,-58.593750
6577,-58.593750
6578,-58.593750
6579,-58.593750
6580,-58.593750
6581,-58.593750
6582,-62.500000
6583,-62.500000
6584,-62.500000
6585,-62.500000
6586,-66.406250
6587,-66.406250
6588,-66.406250
6589,-66.406250
6590,-66.406250
6591,-66.406250
6592,-66.406250
6593,-70.312500
6594,-70.312500
6595,-70.312500
6596,-70.312500
6597,-70.312500
6598,-70.312500
6599,-74.218750
6600,-74.218750
6601,-74.218750
6602,-74.218750
6603,-74.218750
6604,-74.218750
6605,-78.125000
6606,-78.125000
6607,-78.125000
6608,-78.125000
6609,-78.125000
6610,-78.125000
6611,-82.031250
6612,-82.031250
6613,-82.031250
6614,-82.031250
6615,-82.031250
6616,-82.031250
6617,-82.031250
6618,-85.937500
6619,-85.937500
6620,-85.937500
6621,-85.937500
6622,-85.937500
6623,-85.937500
6624,-85.937500
6625,-89.843750
6626,-89.843750
6627,-89.843750
6628,-89.843750
6629,-89.843750
6630,-93.750000
6631,-93.750000
6632,-93.750000
6633,-93.750000
6634,-93.750000
6635,-93.750000
6636,-93.750000
6637,-93.750000
6638,-93.750000
6639,-97.656250
6640,-97.656250
6641,-97.656250
6642,-97.656250
6643,-97.656250
6644,-101.562500
6645,-101.562500
6646,-101.562500
6647,-101.562500
6648,-101.562500
6649,-101.562500
6650,-101.562500
6651,-101.562500
6652,-105.468750
6653,-105.468750
6654,-105.468750
6655,-105.468750
6656,-105.468750
6657,-105.468750
6658,-105.468750
6659,-105.468750
6660,-105.468750
6661,-105.468750
6662,-109.375000
6663,-105.468750
6664,-109.375000
6665,-109.375000
6666,-109.375000
6667,-109.375000
6668,-109.375000
6669,-109.375000
6670,-109.375000
6671,-113.281250
6672,-113.281250
6673,-113.281250
6674,-113.281250
6675,-113.281250
6676,-113.281250
6677,-113.281250
6678,-113.281250
6679,-113.281250
6680,-117.187500
6681,-117.187500
6682,-117.187500
6683,-117.187500
6684,-117.187500
6685,-117.187500
6686,-117.187500
6687,-117.187500
6688,-117.187500
6689,-117.187500
6690,-117.187500
6691,-121.093750
6692,-121.093750
6693,-117.187500
6694,-121.093750
6695,-121.093750
6696,-121.093750
6697,-121.093750
6698,-121.093750
6699,-121.093750
6700,-121.093750
6701,-121.093750
6702,-121.093750
6703,-121.093750
6704,-125.000000
6705,-121.093750
6706,-121.093750
6707,-121.093750
6708,-125.000000
6709,-125.000000
6710,-125.000000
6711,-125.000000
6712,-125.000000
6713,-125.000000
6714,-125.000000
6715,-125.000000
6716,-125.000000
6717,-125.000000
6718,-125.000000
6719,-125.000000
6720,-125.000000
6721,-125.000000
6722,-128.906250
6723,-125.000000
6724,-128.906250
6725,-128.906250
6726,-128.906250
6727,-125.000000
6728,-128.906250
6729,-125.000000
6730,-128.906250
6731,-128.906250
6732,-128.906250
6733,-128.906250
6734,-128.906250
6735,-128.906250
6736,-128.906250
6737,-128.906250
6738,-128.906250
6739,-128.906250
6740,-128.906250
6741,-128.906250
6742,-128.906250
6743,-128.906250
6744,-128.906250
6745,-128.906250
6746,-128.906250
6747,-128.906250
6748,-128.906250
6749,-128.906250
6750,-128.906250
6751,-128.906250
6752,-128.906250
6753,-128.906250
6754,-128.906250
6755,-128.906250
6756,-128.906250
6757,-128.906250
6758,-128.906250
6759,-128.906250
6760,-128.906250
6761,-128.906250
6762,-128.906250
6763,-128.906250
6764,-128.906250
6765,-128.906250
6766,-128.906250
6767,-128.906250
6768,-128.906250
6769,-128.906250
6770,-128.906250
6771,-128.906250
6772,-128.906250
6773,-128.906250
6774,-128.906250
6775,-128.906250
6776,-128.906250
6777,-128.906250
6778,-128.906250
6779,-128.906250
6780,-128.906250
6781,-128.906250
6782,-128.906250
6783,-128.906250
6784,-128.906250
6785,-125.000000
6786,-125.000000
6787,-125.000000
6788,-125.000000
6789,-125.000000
6790,-125.000000
6791,-125.000000
6792,-125.000000
6793,-125.000000
6794,-125.000000
6795,-125.000000
6796,-125.000000
6797,-125.000000
6798,-125.000000
6799,-125.000000
6800,-125.000000
6801,-125.000000
6802,-125.000000
6803,-125.000000
6804,-121.093750
6805,-121.093750
6806,-121.093750
6807,-121.093750
6808,-121.093750
6809,-121.093750
6810,-121.093750
6811,-121.093750
6812,-121.093750
6813,-121.093750
6814,-121.093750
6815,-121.093750
6816,-121.093750
6817,-121.093750
6818,-121.093750
6819,-117.187500
6820,-117.187500
6821,-117.187500
6822,-117.187500
6823,-117.187500
6824,-117.187500
6825,-117.187500
6826,-117.187500
6827,-117.187500
6828,-117.187500
6829,-117.187500
6830,-113.281250
6831,-113.281250
6832,-113.281250
6833,-113.281250
6834,-113.281250
6835,-113.281250
6836,-113.281250
6837,-113.281250
6838,-113.281250
6839,-113.281250
6840,-109.375000
6841,-109.375000
6842,-109.375000
6843,-109.375000
6844,-109.375000
6845,-109.375000
6846,-109.375000
6847,-109.375000
6848,-109.375000
6849,-105.468750
6850,-105.468750
6851,-105.468750
6852,-105.468750
6853,-105.468750
6854,-105.468750
6855,-101.562500
6856,-101.562500
6857,-101.562500
6858,-101.562500
6859,-101.562500
6860,-101.562500
6861,-101.562500
6862,-101.562500
6863,-101.562500
6864,-101.562500
6865,-97.656250
6866,-97.656250
6867,-97.656250
6868,-97.656250
6869,-97.656250
6870,-97.656250
6871,-97.656250
6872,-97.656250
6873,-93.750000
6874,-93.750000
6875,-93.750000
6876,-93.750000
6877,-93.750000
6878,-93.750000
6879,-93.750000
6880,-89.843750
6881,-89.843750
6882,-89.843750
6883,-89.843750
6884,-89.843750
6885,-89.843750
6886,-85.937500
6887,-85.937500
6888,-85.937500
6889,-85.937500
6890,-85.937500
6891,-85.937500
6892,-82.031250
6893,-82.031250
6894,-82.031250
6895,-82.031250
6896,-82.031250
6897,-82.031250
6898,-82.031250
6899,-78.125000
6900,-78.125000
6901,-78.125000
6902,-78.125000
6903,-78.125000
6904,-78.125000
6905,-74.218750
6906,-74.218750
6907,-74.218750
6908,-74.218750
6909,-74.218750
6910,-74.218750
6911,-70.312500
6912,-70.312500
6913,-70.312500
6914,-70.312500
6915,-70.312500
6916,-66.406250
6917,-66.406250
6918,-66.406250
6919,-66.406250
6920,-66.406250
6921,-66.406250
6922,-66.406250
6923,-66.406250
6924,-62.500000
6925,-62.500000
6926,-62.500000
6927,-62.500000
6928,-58.593750
6929,-58.593750
6930,-58.593750
6931,-58.593750
6932,-58.593750
6933,-58.593750
6934,-54.687500
6935,-58.593750
6936,-54.687500
6937,-54.687500
6938,-54.687500
6939,-54.687500
6940,-50.781250
6941,-50.781250
6942,-50.781250
6943,-50.781250
6944,-50.781250
6945,-46.875000
6946,-42.968750
6947,-46.875000
6948,-46.875000
6949,-46.875000
6950,-46.875000
6951,-42.968750
6952,-42.968750
6953,-42.968750
6954,-42.968750
6955,-42.968750
6956,-39.062500
6957,-39.062500
6958,-39.062500
6959,-39.062500
6960,-39.062500
6961,-39.062500
6962,-35.156250
6963,-35.156250
6964,-35.156250
6965,-35.156250
6966,-35.156250
6967,-31.250000
6968,-31.250000
6969,-31.250000
6970,-31.250000
6971,-31.250000
6972,-27.343750
6973,-27.343750
6974,-27.343750
6975,-27.343750
6976,-27.343750
6977,-23.437500
6978,-23.437500
6979,-23.437500
6980,-23.437500
6981,-23.437500
6982,-19.531250
6983,-19.531250
6984,-19.531250
6985,-19.531250
6986,-19.531250
6987,-15.625000
6988,-15.625000
6989,-15.625000
6990,-15.625000
6991,-15.625000
6992,-11.718750
6993,-11.718750
6994,-11.718750
6995,-11.718750
6996,-11.718750
6997,-11.718750
6998,-11.718750
6999,-7.812500
7000,-7.812500
7001,-7.812500
7002,-7.812500
7003,-3.906250
7004,-3.906250
7005,-3.906250
7006,-3.906250
7007,-3.906250
7008,-3.906250
7009,0.000000
7010,0.000000
7011,0.000000
7012,0.000000
7013,0.000000
7014,0.000000
7015,3.906250
7016,3.906250
7017,3.906250
7018,3.906250
7019,7.812500
7020,7.812500
7021,7.812500
7022,7.812500
7023,7.812500
7024,7.812500
7025,7.812500
7026,11.718750
7027,11.718750
7028,11.718750
7029,11.718750
7030,11.718750
7031,15.625000
7032,11.718750
7033,15.625000
7034,15.625000
7035,15.625000
7036,15.625000
7037,19.531250
7038,19.531250
7039,19.531250
7040,19.531250
7041,19.531250
7042,19.531250
7043,23.437500
7044,23.437500
7045,23.437500
7046,23.437500
7047,23.437500
7048,23.437500
7049,27.343750
7050,27.343750
7051,27.343750
7052,27.343750
7053,27.343750
7054,31.250000
7055,31.250000
7056,31.250000
7057,31.250000
7058,31.250000
7059,31.250000
7060,35.156250
7061,35.156250
7062,35.156250
7063,35.156250
7064,35.156250
7065,35.156250
7066,35.156250
7067,35.156250
7068,39.062500
7069,39.062500
7070,39.062500
7071,39.062500
7072,42.968750
7073,42.968750
7074,42.968750
7075,42.968750
7076,42.968750
7077,42.968750
7078,42.968750
7079,46.875000
7080,46.875000
7081,46.875000
7082,46.875000
7083,46.875000
7084,46.875000
7085,46.875000
7086,50.781250
7087,50.781250
7088,50.781250
7089,50.781250
7090,50.781250
7091,50.781250
7092,50.781250
7093,54.687500
7094,54.687500
7095,54.687500
7096,54.687500
7097,54.687500
7098,54.687500
7099,58.593750
7100,54.687500
7101,54.687500
7102,58.593750
7103,58.593750
7104,58.593750
7105,58.593750
7106,62.500000
7107,62.500000
7108,62.500000
7109,62.500000
7110,62.500000
7111,62.500000
7112,62.500000
7113,62.500000
7114,62.500000
7115,66.406250
7116,66.406250
7117,66.406250
7118,66.406250
7119,66.406250
7120,66.406250
7121,66.406250
7122,66.406250
7123,66.406250
7124,70.312500
7125,70.312500
7126,70.312500
7127,70.312500
7128,70.312500
7129,70.312500
7130,74.218750
7131,74.218750
7132,74.218750
7133,74.218750
7134,74.218750
7135,74.218750
7136,74.218750
7137,74.218750
7138,74.218750
7139,74.218750
7140,74.218750
7141,78.125000
7142,78.125000
7143,78.125000
7144,78.125000
7145,78.125000
7146,78.125000
7147,78.125000
7148,78.125000
7149,78.125000
7150,78.125000
7151,78.125000
7152,82.031250
7153,82.031250
7154,82.031250
7155,82.031250
7156,82.031250
7157,82.031250
7158,82.031250
7159,82.031250
7160,82.031250
7161,82.031250
7162,82.031250
7163,85.937500
7164,85.937500
7165,85.937500
7166,85.937500
7167,85.937500
7168,85.937500
7169,85.937500
7170,85.937500
7171,85.937500
7172,85.937500
7173,85.937500
7174,85.937500
7175,85.937500
7176,89.843750
7177,89.843750
7178,89.843750
7179,89.843750
7180,89.843750
7181,89.843750
7182,89.843750
7183,89.843750
7184,89.843750
7185,89.843750
7186,89.843750
7187,89.843750
7188,89.843750
7189,93.750000
7190,89.843750
7191,93.750000
7192,89.843750
7193,93.750000
7194,93.750000
7195,93.750000
7196,93.750000
7197,93.750000
7198,93.750000
7199,93.750000
7200,93.750000
7201,93.750000
7202,93.750000
7203,93.750000
7204,93.750000
7205,93.750000
7206,93.750000
7207,93.750000
7208,93.750000
7209,93.750000
7210,97.656250
7211,93.750000
7212,93.750000
7213,97.656250
7214,93.750000
7215,97.656250
7216,93.750000
7217,97.656250
7218,97.656250
7219,97.656250
7220,97.656250
7221,97.656250
7222,97.656250
7223,97.656250
7224,97.656250
7225,97.656250
7226,97.656250
7227,97.656250
7228,97.656250
7229,97.656250
7230,97.656250
7231,97.656250
7232,97.656250
7233,97.656250
7234,97.656250
7235,97.656250
7236,97.656250
7237,97.656250
7238,97.656250
7239,97.656250
7240,97.656250
7241,97.656250
7242,97.656250
7243,97.656250
7244,97.656250
7245,97.656250
7246,97.656250
7247,97.656250
7248,97.656250
7249,97.656250
7250,97.656250
7251,97.656250
7252,97.656250
7253,97.656250
7254,97.656250
7255,97.656250
7256,97.656250
7257,97.656250
7258,97.656250
7259,97.656250
7260,97.656250
7261,97.656250
7262,97.656250
7263,97.656250
7264,97.656250
7265,97.656250
7266,97.656250
7267,97.656250
7268,97.656250
7269,97.656250
7270,97.656250
7271,97.656250
7272,97.656250
7273,97.656250
7274,97.656250
7275,97.656250
7276,97.656250
7277,97.656250
7278,97.656250
7279,97.656250
7280,97.656250
7281,97.656250
7282,97.656250
7283,97.656250
7284,93.750000
7285,93.750000
7286,97.656250
7287,93.750000
7288,93.750000
7289,97.656250
7290,93.750000
7291,93.750000
7292,93.750000
7293,93.750000
7294,93.750000
7295,93.750000
7296,93.750000
7297,93.750000
7298,93.750000
7299,93.750000
7300,93.750000
7301,93.750000
7302,93.750000
7303,93.750000
7304,93.750000
7305,89.843750
7306,89.843750
7307,89.843750
7308,93.750000
7309,89.843750
7310,89.843750
7311,89.843750
7312,89.843750
7313,89.843750
7314,89.843750
7315,89.843750
7316,89.843750
7317,89.843750
7318,89.843750
7319,89.843750
7320,89.843750
7321,89.843750
7322,89.843750
7323,89.843750
7324,85.937500
7325,85.937500
7326,85.937500
7327,85.937500
7328,85.937500
7329,85.937500
7330,85.937500
7331,85.937500
7332,85.937500
7333,85.937500
7334,85.937500
7335,85.937500
7336,82.031250
7337,82.031250
7338,82.031250
7339,82.031250
7340,82.031250
7341,82.031250
7342,82.031250
7343,82.031250
7344,82.031250
7345,82.031250
7346,82.031250
7347,82.031250
7348,82.031250
7349,78.125000
7350,78.125000
7351,78.125000
7352,78.125000
7353,78.125000
7354,78.125000
7355,78.125000
7356,78.125000
7357,78.125000
7358,78.125000
7359,74.218750
7360,74.218750
7361,74.218750
7362,74.218750
7363,74.218750
7364,74.218750
7365,74.218750
7366,74.218750
7367,70.312500
7368,70.312500
7369,70.312500
7370,70.312500
7371,70.312500
7372,70.312500
7373,70.312500
7374,70.312500
7375,70.312500
7376,70.312500
7377,66.406250
7378,66.406250
7379,66.406250
7380,66.406250
7381,66.406250
7382,66.406250
7383,66.406250
7384,62.500000
7385,62.500000
7386,62.500000
7387,62.500000
7388,62.500000
7389,62.500000
7390,62.500000
7391,58.593750
7392,58.593750
7393,58.593750
7394,58.593750
7395,58.593750
7396,58.593750
7397,58.593750
7398,58.593750
7399,58.593750
7400,54.687500
7401,54.687500
7402,54.687500
7403,54.687500
7404,54.687500
7405,54.687500
7406,50.781250
7407,50.781250
7408,50.781250
7409,50.781250
7410,50.781250
7411,50.781250
7412,50.781250
7413,46.875000
7414,46.875000
7415,46.875000
7416,46.875000
7417,46.875000
7418,46.875000
7419,46.875000
7420,42.968750
7421,42.968750
7422,42.968750
7423,42.968750
7424,42.968750
7425,42.968750
7426,39.062500
7427,39.062500
7428,39.062500
7429,39.062500
7430,39.062500
7431,39.062500
7432,39.062500
7433,39.062500
7434,35.156250
7435,35.156250
7436,35.156250
7437,35.156250
7438,31.250000
7439,31.250000
7440,31.250000
7441,31.250000
7442,31.250000
7443,31.250000
7444,31.250000
7445,27.343750
7446,27.343750
7447,27.343750
7448,27.343750
7449,27.343750
7450,27.343750
7451,23.437500
7452,23.437500
7453,23.437500
7454,23.437500
7455,23.437500
7456,19.531250
7457,19.531250
7458,19.531250
7459,19.531250
7460,19.531250
7461,19.531250
7462,15.625000
7463,15.625000
7464,15.625000
7465,15.625000
7466,15.625000
7467,15.625000
7468,11.718750
7469,11.718750
7470,11.718750
7471,11.718750
7472,11.718750
7473,11.718750
7474,7.812500
7475,7.812500
7476,7.812500
7477,7.812500
7478,7.812500
7479,3.906250
7480,3.906250
7481,3.906250
7482,3.906250
7483,3.906250
7484,0.000000
7485,0.000000
7486,0.000000
7487,0.000000
7488,0.000000
7489,0.000000
7490,0.000000
7491,-3.906250
7492,-3.906250
7493,-3.906250
7494,-3.906250
7495,-7.812500
7496,-7.812500
7497,-7.812500
7498,-7.812500
7499,-7.812500
7500,-7.812500
7501,-7.812500
7502,-11.718750
7503,-11.718750
7504,-11.718750
7505,-11.718750
7506,-15.625000
7507,-15.625000
7508,-15.625000
7509,-15.625000
7510,-15.625000
7511,-19.531250
7512,-19.531250
7513,-19.531250
7514,-19.531250
7515,-19.531250
7516,-23.437500
7517,-23.437500
7518,-23.437500
7519,-23.437500
7520,-23.437500
7521,-23.437500
7522,-27.343750
7523,-27.343750
7524,-27.343750
7525,-27.343750
7526,-27.343750
7527,-31.250000
7528,-31.250000
7529,-31.250000
7530,-31.250000
7531,-31.250000
7532,-31.250000
7533,-31.250000
7534,-35.156250
7535,-35.156250
7536,-35.156250
7537,-35.156250
7538,-39.062500
7539,-39.062500
7540,-39.062500
7541,-39.062500
7542,-39.062500
7543,-42.968750
7544,-42.968750
7545,-42.968750
7546,-42.968750
7547,-42.968750
7548,-46.875000
7549,-46.875000
7550,-46.875000
7551,-46.875000
7552,-46.875000
7553,-46.875000
7554,-46.875000
7555,-50.781250
7556,-50.781250
7557,-50.781250
7558,-50.781250
7559,-50.781250
7560,-54.687500
7561,-54.687500
7562,-54.687500
7563,-54.687500
7564,-54.687500
7565,-54.687500
7566,-58.593750
7567,-58.593750
7568,-58.593750
7569,-58.593750
7570,-62.500000
7571,-62.500000
7572,-62.500000
7573,-62.500000
7574,-62.500000
7575,-62.500000
7576,-62.500000
7577,-62.500000
7578,-66.406250
7579,-66.406250
7580,-66.406250
7581,-66.406250
7582,-70.312500
7583,-70.312500
7584,-70.312500
7585,-70.312500
7586,-70.312500
7587,-70.312500
7588,-70.312500
7589,-74.218750
7590,-74.218750
7591,-74.218750
7592,-74.218750
7593,-74.218750
7594,-78.125000
7595,-78.125000
7596,-78.125000
7597,-78.125000
7598,-78.125000
7599,-78.125000
7600,-78.125000
7601,-82.031250
7602,-82.031250
7603,-82.031250
7604,-82.031250
7605,-82.031250
7606,-82.031250
7607,-82.031250
7608,-85.937500
7609,-85.937500
7610,-85.937500
7611,-85.937500
7612,-85.937500
7613,-85.937500
7614,-89.843750
7615,-89.843750
7616,-89.843750
7617,-89.843750
7618,-89.843750
7619,-89.843750
7620,-89.843750
7621,-89.843750
7622,-93.750000
7623,-93.750000
7624,-93.750000
7625,-93.750000
7626,-97.656250
7627,-93.750000
7628,-97.656250
7629,-97.656250
7630,-97.656250
7631,-97.656250
7632,-97.656250
7633,-97.656250
7634,-97.656250
7635,-101.562500
7636,-101.562500
7637,-101.562500
7638,-101.562500
7639,-101.562500
7640,-101.562500
7641,-101.562500
7642,-101.562500
7643,-105.468750
7644,-105.468750
7645,-105.468750
7646,-105.468750
7647,-105.468750
7648,-105.468750
7649,-105.468750
7650,-105.468750
7651,-109.375000
7652,-109.375000
7653,-109.375000
7654,-109.375000
7655,-109.375000
7656,-109.375000
7657,-109.375000
7658,-109.375000
7659,-109.375000
7660,-113.281250
7661,-113.281250
7662,-113.281250
7663,-113.281250
7664,-113.281250
7665,-113.281250
7666,-113.281250
7667,-113.281250
7668,-117.187500
7669,-117.187500
7670,-117.187500
7671,-117.187500
7672,-117.187500
7673,-117.187500
7674,-117.187500
7675,-117.187500
7676,-117.187500
7677,-117.187500
7678,-117.187500
7679,-117.187500
7680,-121.093750
7681,-121.093750
7682,-117.187500
7683,-121.093750
7684,-121.093750
7685,-121.093750
7686,-121.093750
7687,-121.093750
7688,-121.093750
7689,-121.093750
7690,-121.093750
7691,-121.093750
7692,-121.093750
7693,-121.093750
7694,-125.000000
7695,-121.093750
7696,-125.000000
7697,-125.000000
7698,-125.000000
7699,-125.000000
7700,-125.000000
7701,-125.000000
7702,-125.000000
7703,-125.000000
7704,-125.000000
7705,-125.000000
7706,-125.000000
7707,-125.000000
7708,-125.000000
7709,-125.000000
7710,-125.000000
7711,-125.000000
7712,-128.906250
7713,-128.906250
7714,-125.000000
7715,-128.906250
7716,-125.000000
7717,-128.906250
7718,-128.906250
7719,-128.906250
7720,-128.906250
7721,-128.906250
7722,-128.906250
7723,-128.906250
7724,-128.906250
7725,-128.906250
7726,-128.906250
7727,-128.906250
7728,-128.906250
7729,-128.906250
7730,-128.906250
7731,-128.906250
7732,-128.906250
7733,-128.906250
7734,-128.906250
7735,-128.906250
7736,-128.906250
7737,-128.906250
7738,-128.906250
7739,-128.906250
7740,-128.906250
7741,-128.906250
7742,-128.906250
7743,-128.906250
7744,-128.906250
7745,-128.906250
7746,-128.906250
7747,-128.906250
7748,-128.906250
7749,-128.906250
7750,-128.906250
7751,-128.906250
7752,-128.906250
7753,-128.906250
7754,-128.906250
7755,-128.906250
7756,-128.906250
7757,-128.906250
7758,-128.906250
7759,-128.906250
7760,-128.906250
7761,-128.906250
7762,-128.906250
7763,-128.906250
7764,-128.906250
7765,-128.906250
7766,-128.906250
7767,-128.906250
7768,-128.906250
7769,-128.906250
7770,-128.906250
7771,-128.906250
7772,-128.906250
7773,-128.906250
7774,-128.906250
7775,-125.000000
7776,-125.000000
7777,-125.000000
7778,-125.000000
7779,-125.000000
7780,-125.000000
7781,-125.000000
7782,-125.000000
7783,-125.000000
7784,-125.000000
7785,-125.000000
7786,-125.000000
7787,-125.000000
7788,-125.000000
7789,-125.000000
7790,-125.000000
7791,-125.000000
7792,-121.093750
7793,-125.000000
7794,-125.000000
7795,-121.093750
7796,-121.093750
7797,-121.093750
7798,-121.093750
7799,-121.093750
7800,-121.093750
7801,-121.093750
7802,-121.093750
7803,-121.093750
7804,-121.093750
7805,-121.093750
7806,-121.093750
7807,-121.093750
7808,-117.187500
7809,-117.187500
7810,-117.187500
7811,-117.187500
7812,-117.187500
7813,-117.187500
7814,-117.187500
7815,-117.187500
7816,-117.187500
7817,-117.187500
7818,-117.187500
7819,-113.281250
7820,-117.187500
7821,-113.281250
7822,-113.281250
7823,-113.281250
7824,-113.281250
7825,-113.281250
7826,-113.281250
7827,-113.281250
7828,-113.281250
7829,-109.375000
7830,-109.375000
7831,-109.375000
7832,-109.375000
7833,-109.375000
7834,-109.375000
7835,-109.375000
7836,-109.375000
7837,-109.375000
7838,-109.375000
7839,-105.468750
7840,-105.468750
7841,-105.468750
7842,-105.468750
7843,-105.468750
7844,-105.468750
7845,-105.468750
7846,-105.468750
7847,-101.562500
7848,-101.562500
7849,-101.562500
7850,-101.562500
7851,-101.562500
7852,-101.562500
7853,-101.562500
7854,-97.656250
7855,-97.656250
7856,-97.656250
7857,-97.656250
7858,-97.656250
7859,-97.656250
7860,-97.656250
7861,-93.750000
7862,-93.750000
7863,-93.750000
7864,-93.750000
7865,-93.750000
7866,-93.750000
7867,-93.750000
7868,-93.750000
7869,-89.843750
7870,-89.843750
7871,-89.843750
7872,-89.843750
7873,-89.843750
7874,-89.843750
7875,-85.937500
7876,-85.937500
7877,-85.937500
7878,-85.937500
7879,-85.937500
7880,-85.937500
7881,-85.937500
7882,-82.031250
7883,-82.031250
7884,-82.031250
7885,-82.031250
7886,-82.031250
7887,-82.031250
7888,-78.125000
7889,-82.031250
7890,-78.125000
7891,-78.125000
7892,-78.125000
7893,-78.125000
7894,-74.218750
7895,-74.218750
7896,-74.218750
7897,-74.218750
7898,-74.218750
7899,-74.218750
7900,-74.218750
7901,-70.312500
7902,-70.312500
7903,-70.312500
7904,-70.312500
7905,-70.312500
7906,-66.406250
7907,-66.406250
7908,-66.406250
7909,-66.406250
7910,-66.406250
7911,-66.406250
7912,-66.406250
7913,-62.500000
7914,-62.500000
7915,-62.500000
7916,-62.500000
7917,-62.500000
7918,-58.593750
7919,-58.593750
7920,-58.593750
7921,-58.593750
7922,-58.593750
7923,-58.593750
7924,-58.593750
7925,-54.687500
7926,-54.687500
7927,-54.687500
7928,-54.687500
7929,-50.781250
7930,-50.781250
7931,-50.781250
7932,-50.781250
7933,-50.781250
7934,-50.781250
7935,-46.875000
7936,-46.875000
7937,-46.875000
7938,-46.875000
7939,-46.875000
7940,-42.968750
7941,-42.968750
7942,-42.968750
7943,-42.968750
7944,-42.968750
7945,-42.968750
7946,-39.062500
7947,-39.062500
7948,-39.062500
7949,-39.062500
7950,-35.156250
7951,-35.156250
7952,-35.156250
7953,-35.156250
7954,-35.156250
7955,-35.156250
7956,-31.250000
7957,-31.250000
7958,-31.250000
7959,-31.250000
7960,-31.250000
7961,-27.343750
7962,-27.343750
7963,-27.343750
7964,-27.343750
7965,-27.343750
7966,-27.343750
7967,-23.437500
7968,-23.437500
7969,-23.437500
7970,-23.437500
7971,-23.437500
7972,-23.437500
7973,-19.531250
7974,-19.531250
7975,-19.531250
7976,-19.531250
7977,-19.531250
7978,-15.625000
7979,-15.625000
7980,-15.625000
7981,-15.625000
7982,-11.718750
7983,-11.718750
7984,-11.718750
7985,-11.718750
7986,-11.718750
7987,-11.718750
7988,-7.812500
7989,-7.812500
7990,-7.812500
7991,-7.812500
7992,-7.812500
7993,-7.812500
7994,-3.906250
7995,-3.906250
7996,-3.906250
7997,-3.906250
7998,-3.906250
7999,0.000000
8000,0.000000
8001,0.000000
8002,0.000000
8003,3.906250
8004,3.906250
8005,3.906250
8006,3.906250
8007,3.906250
8008,3.906250
8009,7.812500
8010,7.812500
8011,7.812500
8012,7.812500
8013,7.812500
8014,7.812500
8015,11.718750
8016,11.718750
8017,11.718750
8018,11.718750
8019,11.718750
8020,15.625000
8021,15.625000
8022,15.625000
8023,15.625000
8024,15.625000
8025,15.625000
8026,19.531250
8027,19.531250
8028,19.531250
8029,19.531250
8030,19.531250
8031,19.531250
8032,23.437500
8033,23.437500
8034,23.437500
8035,23.437500
8036,23.437500
8037,27.343750
8038,27.343750
8039,27.343750
8040,27.343750
8041,27.343750
8042,27.343750
8043,31.250000
8044,31.250000
8045,31.250000
8046,31.250000
8047,31.250000
8048,31.250000
8049,31.250000
8050,35.156250
8051,35.156250
8052,35.156250
8053,35.156250
8054,35.156250
8055,39.062500
8056,39.062500
8057,39.062500
8058,39.062500
8059,39.062500
8060,39.062500
8061,39.062500
8062,42.968750
8063,42.968750
8064,42.968750
8065,42.968750
8066,42.968750
8067,42.968750
8068,46.875000
8069,42.968750
8070,46.875000
8071,46.875000
8072,46.875000
8073,46.875000
8074,46.875000
8075,50.781250
8076,50.781250
8077,50.781250
8078,50.781250
8079,50.781250
8080,50.781250
8081,50.781250
8082,50.781250
8083,54.687500
8084,54.687500
8085,54.687500
8086,54.687500
8087,54.687500
8088,54.687500
8089,54.687500
8090,58.593750
8091,58.593750
8092,58.593750
8093,58.593750
8094,58.593750
8095,58.593750
8096,58.593750
8097,62.500000
8098,62.500000
8099,62.500000
8100,62.500000
8101,62.500000
8102,62.500000
8103,62.500000
8104,66.406250
8105,66.406250
8106,66.406250
8107,66.406250
8108,66.406250
8109,66.406250
8110,66.406250
8111,66.406250
8112,66.406250
8113,66.406250
8114,70.312500
8115,70.312500
8116,70.312500
8117,70.312500
8118,70.312500
8119,70.312500
8120,70.312500
8121,70.312500
8122,74.218750
8123,74.218750
8124,74.218750
8125,74.218750
8126,74.218750
8127,74.218750
8128,74.218750
8129,78.125000
8130,74.218750
8131,78.125000
8132,74.218750
8133,78.125000
8134,78.125000
8135,78.125000
8136,78.125000
8137,78.125000
8138,78.125000
8139,78.125000
8140,78.125000
8141,82.031250
8142,78.125000
8143,82.031250
8144,82.031250
8145,82.031250
8146,82.031250
8147,82.031250
8148,82.031250
8149,82.031250
8150,82.031250
8151,82.031250
8152,82.031250
8153,85.937500
8154,85.937500
8155,85.937500
8156,85.937500
8157,85.937500
8158,85.937500
8159,85.937500
8160,85.937500
8161,85.937500
8162,85.937500
8163,85.937500
8164,85.937500
8165,85.937500
8166,89.843750
8167,89.843750
8168,89.843750
8169,89.843750
8170,89.843750
8171,89.843750
8172,89.843750
8173,89.843750
8174,89.843750
8175,89.843750
8176,89.843750
8177,89.843750
8178,89.843750
8179,89.843750
8180,89.843750
8181,89.843750
8182,89.843750
8183,93.750000
8184,93.750000
8185,93.750000
8186,89.843750
8187,93.750000
8188,93.750000
8189,93.750000
8190,93.750000
8191,93.750000
8192,93.750000
8193,93.750000
8194,93.750000
8195,93.750000
8196,93.750000
8197,93.750000
8198,93.750000
8199,93.750000
8200,93.750000
8201,93.750000
8202,93.750000
8203,97.656250
8204,97.656250
8205,93.750000
8206,97.656250
8207,97.656250
8208,97.656250
8209,97.656250
8210,97.656250
8211,97.656250
8212,97.656250
8213,97.656250
8214,97.656250
8215,97.656250
8216,97.656250
8217,97.656250
8218,97.656250
8219,97.656250
8220,97.656250
8221,97.656250
8222,97.656250
8223,97.656250
8224,97.656250
8225,97.656250
8226,97.656250
8227,97.656250
8228,97.656250
8229,97.656250
8230,97.656250
8231,97.656250
8232,97.656250
8233,97.656250
8234,97.656250
8235,97.656250
8236,97.656250
8237,97.656250
8238,97.656250
8239,97.656250
8240,97.656250
8241,97.656250
8242,97.656250
8243,97.656250
8244,97.656250
8245,97.656250
8246,97.656250
8247,97.656250
8248,97.656250
8249,97.656250
8250,97.656250
8251,97.656250
8252,97.656250
8253,97.656250
8254,97.656250
8255,97.656250
8256,97.656250
8257,97.656250
8258,97.656250
8259,97.656250
8260,97.656250
8261,97.656250
8262,97.656250
8263,97.656250
8264,97.656250
8265,97.656250
8266,97.656250
8267,97.656250
8268,97.656250
8269,97.656250
8270,97.656250
8271,97.656250
8272,97.656250
8273,97.656250
8274,97.656250
8275,97.656250
8276,93.750000
8277,97.656250
8278,97.656250
8279,93.750000
8280,93.750000
8281,93.750000
8282,93.750000
8283,93.750000
8284,93.750000
8285,93.750000
8286,93.750000
8287,93.750000
8288,93.750000
8289,93.750000
8290,93.750000
8291,93.750000
8292,93.750000
8293,93.750000
8294,93.750000
8295,93.750000
8296,93.750000
8297,93.750000
8298,89.843750
8299,89.843750
8300,89.843750
8301,89.843750
8302,89.843750
8303,89.843750
8304,89.843750
8305,89.843750
8306,89.843750
8307,89.843750
8308,89.843750
8309,89.843750
8310,89.843750
8311,89.843750
8312,89.843750
8313,85.937500
8314,89.843750
8315,85.937500
8316,85.937500
8317,85.937500
8318,85.937500
8319,85.937500
8320,85.937500
8321,85.937500
8322,85.937500
8323,85.937500
8324,85.937500
8325,85.937500
8326,82.031250
8327,82.031250
8328,82.031250
8329,82.031250
8330,82.031250
8331,82.031250
8332,82.031250
8333,82.031250
8334,82.031250
8335,82.031250
8336,82.031250
8337,82.031250
8338,78.125000
8339,82.031250
8340,78.125000
8341,78.125000
8342,78.125000
8343,78.125000
8344,78.125000
8345,78.125000
8346,78.125000
8347,78.125000
8348,74.218750
8349,74.218750
8350,74.218750
8351,74.218750
8352,74.218750
8353,74.218750
8354,74.218750
8355,74.218750
8356,74.218750
8357,70.312500
8358,70.312500
8359,70.312500
8360,70.312500
8361,70.312500
8362,70.312500
8363,70.312500
8364,70.312500
8365,70.312500
8366,70.312500
8367,70.312500
8368,66.406250
8369,66.406250
8370,66.406250
8371,66.406250
8372,66.406250
8373,66.406250
8374,62.500000
8375,62.500000
8376,62.500000
8377,62.500000
8378,62.500000
8379,62.500000
8380,62.500000
8381,62.500000
8382,58.593750
8383,58.593750
8384,58.593750
8385,58.593750
8386,58.593750
8387,58.593750
8388,58.593750
8389,58.593750
8390,54.687500
8391,54.687500
8392,54.687500
8393,54.687500
8394,54.687500
8395,54.687500
8396,50.781250
8397,54.687500
8398,50.781250
8399,50.781250
8400,50.781250
8401,50.781250
8402,46.875000
8403,50.781250
8404,46.875000
8405,46.875000
8406,46.875000
8407,46.875000
8408,46.875000
8409,46.875000
8410,42.968750
8411,42.968750
8412,42.968750
8413,42.968750
8414,42.968750
8415,42.968750
8416,42.968750
8417,39.062500
8418,39.062500
8419,39.062500
8420,39.062500
8421,39.062500
8422,39.062500
8423,39.062500
8424,35.156250
8425,35.156250
8426,35.156250
8427,35.156250
8428,35.156250
8429,35.156250
8430,31.250000
8431,31.250000
8432,31.250000
8433,31.250000
8434,31.250000
8435,31.250000
8436,27.343750
8437,27.343750
8438,27.343750
8439,27.343750
8440,27.343750
8441,23.437500
8442,23.437500
8443,23.437500
8444,23.437500
8445,23.437500
8446,23.437500
8447,19.531250
8448,19.531250
8449,19.531250
8450,19.531250
8451,19.531250
8452,15.625000
8453,15.625000
8454,15.625000
8455,15.625000
8456,15.625000
8457,15.625000
8458,11.718750
8459,11.718750
8460,11.718750
8461,11.718750
8462,11.718750
8463,11.718750
8464,7.812500
8465,7.812500
8466,7.812500
8467,7.812500
8468,7.812500
8469,7.812500
8470,3.906250
8471,3.906250
8472,3.906250
8473,3.906250
8474,0.000000
8475,3.906250
8476,0.000000
8477,0.000000
8478,0.000000
8479,0.000000
8480,-3.906250
8481,-3.906250
8482,-3.906250
8483,-3.906250
8484,-3.906250
8485,-7.812500
8486,-7.812500
8487,-7.812500
8488,-7.812500
8489,-7.812500
8490,-7.812500
8491,-11.718750
8492,-11.718750
8493,-11.718750
8494,-11.718750
8495,-11.718750
8496,-15.625000
8497,-15.625000
8498,-15.625000
8499,-15.625000
8500,-15.625000
8501,-19.531250
8502,-19.531250
8503,-19.531250
8504,-19.531250
8505,-19.531250
8506,-19.531250
8507,-23.437500
8508,-23.437500
8509,-23.437500
8510,-23.437500
8511,-23.437500
8512,-23.437500
8513,-27.343750
8514,-27.343750
8515,-27.343750
8516,-27.343750
8517,-31.250000
8518,-31.250000
8519,-31.250000
8520,-31.250000
8521,-31.250000
8522,-31.250000
8523,-35.156250
8524,-35.156250
8525,-35.156250
8526,-35.156250
8527,-35.156250
8528,-39.062500
8529,-39.062500
8530,-39.062500
8531,-39.062500
8532,-39.062500
8533,-42.968750
8534,-42.968750
8535,-42.968750
8536,-42.968750
8537,-42.968750
8538,-42.968750
8539,-42.968750
8540,-46.875000
8541,-46.875000
8542,-46.875000
8543,-46.875000
8544,-46.875000
8545,-50.781250
8546,-50.781250
8547,-50.781250
8548,-50.781250
8549,-50.781250
8550,-54.687500
8551,-54.687500
8552,-54.687500
8553,-54.687500
8554,-54.687500
8555,-54.687500
8556,-58.593750
8557,-58.593750
8558,-58.593750
8559,-58.593750
8560,-58.593750
8561,-62.500000
8562,-62.500000
8563,-62.500000
8564,-62.500000
8565,-62.500000
8566,-66.406250
8567,-66.406250
8568,-66.406250
8569,-66.406250
8570,-66.406250
8571,-66.406250
8572,-70.312500
8573,-70.312500
8574,-70.312500
8575,-70.312500
8576,-70.312500
8577,-74.218750
8578,-74.218750
8579,-74.218750
8580,-74.218750
8581,-74.218750
8582,-74.218750
8583,-74.218750
8584,-78.125000
8585,-78.125000
8586,-78.125000
8587,-78.125000
8588,-78.125000
8589,-78.125000
8590,-78.125000
8591,-82.031250
8592,-82.031250
8593,-82.031250
8594,-82.031250
8595,-82.031250
8596,-85.937500
8597,-85.937500
8598,-85.937500
8599,-85.937500
8600,-85.937500
8601,-85.937500
8602,-85.937500
8603,-89.843750
8604,-89.843750
8605,-89.843750
8606,-89.843750
8607,-89.843750
8608,-89.843750
8609,-89.843750
8610,-93.750000
8611,-89.843750
8612,-93.750000
8613,-93.750000
8614,-93.750000
8615,-93.750000
8616,-93.750000
8617,-97.656250
8618,-97.656250
8619,-97.656250
8620,-97.656250
8621,-97.656250
8622,-97.656250
8623,-97.656250
8624,-101.562500
8625,-101.562500
8626,-101.562500
8627,-101.562500
8628,-101.562500
8629,-101.562500
8630,-101.562500
8631,-101.562500
8632,-101.562500
8633,-105.468750
8634,-105.468750
8635,-105.468750
8636,-105.468750
8637,-105.468750
8638,-105.468750
8639,-105.468750
8640,-105.468750
8641,-105.468750
8642,-109.375000
8643,-109.375000
8644,-109.375000
8645,-109.375000
8646,-109.375000
8647,-109.375000
8648,-109.375000
8649,-109.375000
8650,-113.281250
8651,-113.281250
8652,-113.281250
8653,-113.281250
8654,-113.281250
8655,-113.281250
8656,-113.281250
8657,-113.281250
8658,-113.281250
8659,-113.281250
8660,-113.281250
8661,-117.187500
8662,-117.187500
8663,-117.187500
8664,-117.187500
8665,-117.187500
8666,-117.187500
8667,-117.187500
8668,-117.187500
8669,-117.187500
8670,-121.093750
8671,-121.093750
8672,-121.093750
8673,-121.093750
8674,-121.093750
8675,-121.093750
8676,-121.093750
8677,-121.093750
8678,-121.093750
8679,-121.093750
8680,-121.093750
8681,-121.093750
8682,-121.093750
8683,-121.093750
8684,-125.000000
8685,-121.093750
8686,-125.000000
8687,-125.000000
8688,-125.000000
8689,-125.000000
8690,-125.000000
8691,-125.000000
8692,-125.000000
8693,-125.000000
8694,-125.000000
8695,-125.000000
8696,-125.000000
8697,-125.000000
8698,-125.000000
8699,-125.000000
8700,-125.000000
8701,-125.000000
8702,-128.906250
8703,-125.000000
8704,-128.906250
8705,-125.000000
8706,-128.906250
8707,-128.906250
8708,-128.906250
8709,-128.906250
8710,-128.906250
8711,-128.906250
8712,-128.906250
8713,-128.906250
8714,-128.906250
8715,-128.906250
8716,-128.906250
8717,-128.906250
8718,-128.906250
8719,-128.906250
8720,-128.906250
8721,-128.906250
8722,-128.906250
8723,-128.906250
8724,-128.906250
8725,-128.906250
8726,-128.906250
8727,-128.906250
8728,-128.906250
8729,-128.906250
8730,-128.906250
8731,-128.906250
8732,-128.906250
8733,-128.906250
8734,-128.906250
8735,-128.906250
8736,-128.906250
8737,-128.906250
8738,-128.906250
8739,-128.906250
8740,-128.906250
8741,-128.906250
8742,-128.906250
8743,-128.906250
8744,-128.906250
8745,-128.906250
8746,-128.906250
8747,-128.906250
8748,-128.906250
8749,-128.906250
8750,-128.906250
8751,-128.906250
8752,-128.906250
8753,-128.906250
8754,-128.906250
8755,-128.906250
8756,-128.906250
8757,-128.906250
8758,-128.906250
8759,-128.906250
8760,-128.906250
8761,-125.000000
8762,-125.000000
8763,-125.000000
8764,-128.906250
8765,-125.000000
8766,-125.000000
8767,-125.000000
8768,-125.000000
8769,-125.000000
8770,-125.000000
8771,-125.000000
8772,-125.000000
8773,-125.000000
8774,-125.000000
8775,-125.000000
8776,-125.000000
8777,-125.000000
8778,-125.000000
8779,-125.000000
8780,-125.000000
8781,-121.093750
8782,-121.093750
8783,-121.093750
8784,-121.093750
8785,-121.093750
8786,-121.093750
8787,-121.093750
8788,-121.093750
8789,-121.093750
8790,-121.093750
8791,-121.093750
8792,-121.093750
8793,-121.093750
8794,-121.093750
8795,-117.187500
8796,-117.187500
8797,-117.187500
8798,-117.187500
8799,-117.187500
8800,-117.187500
8801,-117.187500
8802,-117.187500
8803,-117.187500
8804,-117.187500
8805,-117.187500
8806,-117.187500
8807,-113.281250
8808,-113.281250
8809,-113.281250
8810,-113.281250
8811,-113.281250
8812,-113.281250
8813,-113.281250
8814,-113.281250
8815,-113.281250
8816,-113.281250
8817,-113.281250
8818,-109.375000
8819,-109.375000
8820,-109.375000
8821,-109.375000
8822,-109.375000
8823,-109.375000
8824,-109.375000
8825,-109.375000
8826,-109.375000
8827,-105.468750
8828,-105.468750
8829,-105.468750
8830,-105.468750
8831,-105.468750
8832,-105.468750
8833,-105.468750
8834,-105.468750
8835,-101.562500
8836,-105.468750
8837,-101.562500
8838,-101.562500
8839,-101.562500
8840,-101.562500
8841,-101.562500
8842,-101.562500
8843,-97.656250
8844,-97.656250
8845,-97.656250
8846,-97.656250
8847,-97.656250
8848,-97.656250
8849,-97.656250
8850,-97.656250
8851,-93.750000
8852,-93.750000
8853,-93.750000
8854,-93.750000
8855,-93.750000
8856,-93.750000
8857,-93.750000
8858,-89.843750
8859,-89.843750
8860,-89.843750
8861,-89.843750
8862,-89.843750
8863,-89.843750
8864,-89.843750
8865,-85.937500
8866,-85.937500
8867,-85.937500
8868,-85.937500
8869,-85.937500
8870,-85.937500
8871,-85.937500
8872,-82.031250
8873,-82.031250
8874,-82.031250
8875,-82.031250
8876,-82.031250
8877,-82.031250
8878,-82.031250
8879,-78.125000
8880,-78.125000
8881,-78.125000
8882,-78.125000
8883,-74.218750
8884,-74.218750
8885,-74.218750
8886,-74.218750
8887,-74.218750
8888,-74.218750
8889,-74.218750
8890,-70.312500
8891,-70.312500
8892,-70.312500
8893,-70.312500
8894,-70.312500
8895,-66.406250
8896,-66.406250
8897,-66.406250
8898,-66.406250
8899,-66.406250
8900,-66.406250
8901,-62.500000
8902,-62.500000
8903,-62.500000
8904,-62.500000
8905,-62.500000
8906,-62.500000
8907,-58.593750
8908,-58.593750
8909,-58.593750
8910,-58.593750
8911,-58.593750
8912,-54.687500
8913,-58.593750
8914,-54.687500
8915,-54.687500
8916,-54.687500
8917,-54.687500
8918,-50.781250
8919,-50.781250
8920,-50.781250
8921,-50.781250
8922,-50.781250
8923,-50.781250
8924,-46.875000
8925,-46.875000
8926,-46.875000
8927,-46.875000
8928,-46.875000
8929,-42.968750
8930,-42.968750
8931,-42.968750
8932,-42.968750
8933,-42.968750
8934,-42.968750
8935,-39.062500
8936,-39.062500
8937,-39.062500
8938,-39.062500
8939,-39.062500
8940,-35.156250
8941,-35.156250
8942,-35.156250
8943,-35.156250
8944,-35.156250
8945,-31.250000
8946,-31.250000
8947,-31.250000
8948,-31.250000
8949,-31.250000
8950,-31.250000
8951,-27.343750
8952,-27.343750
8953,-27.343750
8954,-27.343750
8955,-27.343750
8956,-23.437500
8957,-23.437500
8958,-23.437500
8959,-23.437500
8960,-23.437500
8961,-23.437500
8962,-19.531250
8963,-19.531250
8964,-19.531250
8965,-19.531250
8966,-19.531250
8967,-15.625000
8968,-15.625000
8969,-15.625000
8970,-15.625000
8971,-15.625000
8972,-11.718750
8973,-11.718750
8974,-11.718750
8975,-11.718750
8976,-11.718750
8977,-11.718750
8978,-7.812500
8979,-7.812500
8980,-7.812500
8981,-7.812500
8982,-7.812500
8983,-3.906250
8984,-3.906250
8985,-3.906250
8986,-3.906250
8987,-3.906250
8988,-3.906250
8989,-3.906250
8990,0.000000
8991,0.000000
8992,0.000000
8993,0.000000
8994,3.906250
8995,3.906250
8996,3.906250
8997,3.906250
8998,3.906250
8999,7.812500
9000,7.812500
9001,7.812500
9002,7.812500
9003,7.812500
9004,7.812500
9005,11.718750
9006,11.718750
9007,11.718750
9008,11.718750
9009,11.718750
9010,15.625000
9011,15.625000
9012,15.625000
9013,15.625000
9014,15.625000
9015,15.625000
9016,19.531250
9017,19.531250
9018,19.531250
9019,19.531250
9020,19.531250
9021,19.531250
9022,23.437500
9023,23.437500
9024,23.437500
9025,23.437500
9026,23.437500
9027,27.343750
9028,27.343750
9029,27.343750
9030,27.343750
9031,27.343750
9032,27.343750
9033,31.250000
9034,31.250000
9035,31.250000
9036,31.250000
9037,31.250000
9038,31.250000
9039,35.156250
9040,35.156250
9041,35.156250
9042,35.156250
9043,35.156250
9044,35.156250
9045,39.062500
9046,39.062500
9047,39.062500
9048,39.062500
9049,39.062500
9050,39.062500
9051,42.968750
9052,42.968750
9053,42.968750
9054,42.968750
9055,42.968750
9056,42.968750
9057,42.968750
9058,42.968750
9059,46.875000
9060,46.875000
9061,46.875000
9062,46.875000
9063,46.875000
9064,50.781250
9065,50.781250
9066,50.781250
9067,50.781250
9068,50.781250
9069,50.781250
9070,50.781250
9071,50.781250
9072,50.781250
9073,54.687500
9074,54.687500
9075,54.687500
9076,54.687500
9077,54.687500
9078,54.687500
9079,54.687500
9080,58.593750
9081,58.593750
9082,58.593750
9083,58.593750
9084,58.593750
9085,58.593750
9086,58.593750
9087,58.593750
9088,62.500000
9089,62.500000
9090,62.500000
9091,62.500000
9092,62.500000
9093,62.500000
9094,62.500000
9095,66.406250
9096,66.406250
9097,66.406250
9098,66.406250
9099,66.406250
9100,66.406250
9101,66.406250
9102,66.406250
9103,66.406250
9104,70.312500
9105,70.312500
9106,70.312500
9107,70.312500
9108,70.312500
9109,70.312500
9110,70.312500
9111,70.312500
9112,74.218750
9113,74.218750
9114,74.218750
9115,74.218750
9116,74.218750
9117,74.218750
9118,74.218750
9119,74.218750
9120,74.218750
9121,74.218750
9122,78.125000
9123,78.125000
9124,78.125000
9125,78.125000
9126,78.125000
9127,78.125000
9128,78.125000
9129,78.125000
9130,78.125000
9131,78.125000
9132,82.031250
9133,82.031250
9134,82.031250
9135,82.031250
9136,82.031250
9137,82.031250
9138,82.031250
9139,82.031250
9140,82.031250
9141,82.031250
9142,82.031250
9143,82.031250
9144,85.937500
9145,85.937500
9146,85.937500
9147,85.937500
9148,85.937500
9149,85.937500
9150,85.937500
9151,85.937500
9152,85.937500
9153,89.843750
9154,85.937500
9155,85.937500
9156,85.937500
9157,85.937500
9158,89.843750
9159,89.843750
9160,89.843750
9161,89.843750
9162,89.843750
9163,89.843750
9164,89.843750
9165,89.843750
9166,89.843750
9167,89.843750
9168,89.843750
9169,93.750000
9170,93.750000
9171,93.750000
9172,93.750000
9173,93.750000
9174,89.843750
9175,93.750000
9176,93.750000
9177,93.750000
9178,93.750000
9179,93.750000
9180,93.750000
9181,93.750000
9182,93.750000
9183,93.750000
9184,93.750000
9185,93.750000
9186,93.750000
9187,93.750000
9188,93.750000
9189,97.656250
9190,97.656250
9191,93.750000
9192,93.750000
9193,97.656250
9194,97.656250
9195,97.656250
9196,97.656250
9197,97.656250
9198,97.656250
9199,97.656250
9200,97.656250
9201,97.656250
9202,97.656250
9203,97.656250
9204,97.656250
9205,97.656250
9206,97.656250
9207,97.656250
9208,97.656250
9209,97.656250
9210,97.656250
9211,97.656250
9212,97.656250
9213,97.656250
9214,97.656250
9215,97.656250
9216,97.656250
9217,97.656250
9218,97.656250
9219,97.656250
9220,97.656250
9221,97.656250
9222,97.656250
9223,97.656250
9224,97.656250
9225,97.656250
9226,97.656250
9227,97.656250
9228,97.656250
9229,97.656250
9230,97.656250
9231,97.656250
9232,97.656250
9233,97.656250
9234,97.656250
9235,97.656250
9236,97.656250
9237,97.656250
9238,97.656250
9239,97.656250
9240,97.656250
9241,97.656250
9242,97.656250
9243,97.656250
9244,97.656250
9245,97.656250
9246,97.656250
9247,97.656250
9248,97.656250
9249,97.656250
9250,97.656250
9251,97.656250
9252,97.656250
9253,97.656250
9254,97.656250
9255,97.656250
9256,97.656250
9257,97.656250
9258,97.656250
9259,97.656250
9260,97.656250
9261,97.656250
9262,97.656250
9263,97.656250
9264,97.656250
9265,93.750000
9266,93.750000
9267,93.750000
9268,97.656250
9269,97.656250
9270,93.750000
9271,93.750000
9272,93.750000
9273,93.750000
9274,93.750000
9275,93.750000
9276,93.750000
9277,93.750000
9278,93.750000
9279,93.750000
9280,93.750000
9281,93.750000
9282,93.750000
9283,93.750000
9284,93.750000
9285,93.750000
9286,93.750000
9287,93.750000
9288,93.750000
9289,93.750000
9290,89.843750
9291,89.843750
9292,89.843750
9293,89.843750
9294,89.843750
9295,89.843750
9296,89.843750
9297,89.843750
9298,89.843750
9299,89.843750
9300,89.843750
9301,89.843750
9302,89.843750
9303,89.843750
9304,85.937500
9305,85.937500
9306,85.937500
9307,85.937500
9308,85.937500
9309,85.937500
9310,85.937500
9311,85.937500
9312,85.937500
9313,85.937500
9314,85.937500
9315,85.937500
9316,85.937500
9317,82.031250
9318,82.031250
9319,82.031250
9320,82.031250
9321,82.031250
9322,82.031250
9323,82.031250
9324,82.031250
9325,82.031250
9326,82.031250
9327,78.125000
9328,78.125000
9329,78.125000
9330,78.125000
9331,78.125000
9332,78.125000
9333,78.125000
9334,78.125000
9335,78.125000
9336,74.218750
9337,74.218750
9338,74.218750
9339,74.218750
9340,74.218750
9341,74.218750
9342,74.218750
9343,70.312500
9344,74.218750
9345,74.218750
9346,70.312500
9347,70.312500
9348,70.312500
9349,70.312500
9350,70.312500
9351,70.312500
9352,70.312500
9353,70.312500
9354,70.312500
9355,70.312500
9356,66.406250
9357,66.406250
9358,66.406250
9359,66.406250
9360,66.406250
9361,66.406250
9362,66.406250
9363,66.406250
9364,62.500000
9365,62.500000
9366,62.500000
9367,62.500000
9368,62.500000
9369,62.500000
9370,62.500000
9371,58.593750
9372,58.593750
9373,58.593750
9374,58.593750
9375,58.593750
9376,58.593750
9377,58.593750
9378,54.687500
9379,58.593750
9380,54.687500
9381,54.687500
9382,54.687500
9383,54.687500
9384,54.687500
9385,50.781250
9386,50.781250
9387,50.781250
9388,50.781250
9389,50.781250
9390,50.781250
9391,50.781250
9392,50.781250
9393,50.781250
9394,46.875000
9395,46.875000
9396,46.875000
9397,46.875000
9398,46.875000
9399,42.968750
9400,42.968750
9401,42.968750
9402,42.968750
9403,42.968750
9404,42.968750
9405,39.062500
9406,39.062500
9407,39.062500
9408,39.062500
9409,39.062500
9410,39.062500
9411,39.062500
9412,35.156250
9413,35.156250
9414,35.156250
9415,35.156250
9416,35.156250
9417,35.156250
9418,35.156250
9419,35.156250
9420,31.250000
9421,31.250000
9422,31.250000
9423,31.250000
9424,27.343750
9425,27.343750
9426,27.343750
9427,27.343750
9428,27.343750
9429,27.343750
9430,23.437500
9431,23.437500
9432,23.437500
9433,23.437500
9434,23.437500
9435,23.437500
9436,19.531250
9437,19.531250
9438,19.531250
9439,19.531250
9440,19.531250
9441,19.531250
9442,15.625000
9443,15.625000
9444,15.625000
9445,15.625000
9446,15.625000
9447,15.625000
9448,11.718750
9449,11.718750
9450,11.718750
9451,11.718750
9452,11.718750
9453,7.812500
9454,7.812500
9455,7.812500
9456,7.812500
9457,7.812500
9458,7.812500
9459,3.906250
9460,3.906250
9461,3.906250
9462,3.906250
9463,3.906250
9464,0.000000
9465,0.000000
9466,0.000000
9467,0.000000
9468,0.000000
9469,0.000000
9470,-3.906250
9471,-3.906250
9472,-3.906250
9473,-7.812500
9474,-3.906250
9475,-7.812500
9476,-7.812500
9477,-7.812500
9478,-7.812500
9479,-7.812500
9480,-11.718750
9481,-11.718750
9482,-11.718750
9483,-11.718750
9484,-11.718750
9485,-15.625000
9486,-15.625000
9487,-15.625000
9488,-15.625000
9489,-15.625000
9490,-19.531250
9491,-19.531250
9492,-19.531250
9493,-19.531250
9494,-19.531250
9495,-19.531250
9496,-23.437500
9497,-23.437500
9498,-23.437500
9499,-23.437500
9500,-23.437500
9501,-27.343750
9502,-27.343750
9503,-27.343750
9504,-27.343750
9505,-27.343750
9506,-27.343750
9507,-31.250000
9508,-31.250000
9509,-31.250000
9510,-31.250000
9511,-31.250000
9512,-35.156250
9513,-35.156250
9514,-35.156250
9515,-35.156250
9516,-35.156250
9517,-35.156250
9518,-39.062500
9519,-39.062500
9520,-39.062500
9521,-39.062500
9522,-39.062500
9523,-42.968750
9524,-42.968750
9525,-42.968750
9526,-42.968750
9527,-42.968750
9528,-46.875000
9529,-46.875000
9530,-46.875000
9531,-46.875000
9532,-46.875000
9533,-50.781250
9534,-50.781250
9535,-50.781250
9536,-50.781250
9537,-50.781250
9538,-50.781250
9539,-50.781250
9540,-54.687500
9541,-54.687500
9542,-54.687500
9543,-54.687500
9544,-58.593750
9545,-54.687500
9546,-58.593750
9547,-58.593750
9548,-58.593750
9549,-58.593750
9550,-58.593750
9551,-62.500000
9552,-62.500000
9553,-62.500000
9554,-62.500000
9555,-62.500000
9556,-62.500000
9557,-62.500000
9558,-66.406250
9559,-66.406250
9560,-66.406250
9561,-70.312500
9562,-70.312500
9563,-70.312500
9564,-70.312500
9565,-70.312500
9566,-70.312500
9567,-70.312500
9568,-74.218750
9569,-74.218750
9570,-74.218750
9571,-74.218750
9572,-74.218750
9573,-74.218750
9574,-78.125000
9575,-78.125000
9576,-78.125000
9577,-78.125000
9578,-78.125000
9579,-78.125000
9580,-78.125000
9581,-82.031250
9582,-82.031250
9583,-82.031250
9584,-82.031250
9585,-82.031250
9586,-85.937500
9587,-85.937500
9588,-85.937500
9589,-85.937500
9590,-85.937500
9591,-85.937500
9592,-89.843750
9593,-89.843750
9594,-89.843750
9595,-89.843750
9596,-89.843750
9597,-89.843750
9598,-89.843750
9599,-89.843750
9600,-93.750000
9601,-93.750000
9602,-93.750000
9603,-93.750000
9604,-93.750000
9605,-93.750000
9606,-93.750000
9607,-93.750000
9608,-97.656250
9609,-97.656250
9610,-97.656250
9611,-97.656250
9612,-101.562500
9613,-97.656250
9614,-97.656250
9615,-101.562500
9616,-101.562500
9617,-101.562500
9618,-101.562500
9619,-101.562500
9620,-101.562500
9621,-101.562500
9622,-105.468750
9623,-105.468750
9624,-105.468750
9625,-105.468750
9626,-105.468750
9627,-105.468750
9628,-105.468750
9629,-109.375000
9630,-109.375000
9631,-109.375000
9632,-109.375000
9633,-109.375000
9634,-109.375000
9635,-109.375000
9636,-109.375000
9637,-109.375000
9638,-109.375000
9639,-113.281250
9640,-113.281250
9641,-113.281250
9642,-113.281250
9643,-113.281250
9644,-113.281250
9645,-113.281250
9646,-113.281250
9647,-113.281250
9648,-117.187500
9649,-113.281250
9650,-117.187500
9651,-117.187500
9652,-117.187500
9653,-117.187500
9654,-117.187500
9655,-117.187500
9656,-117.187500
9657,-117.187500
9658,-117.187500
9659,-117.187500
9660,-117.187500
9661,-121.093750
9662,-121.093750
9663,-121.093750
9664,-121.093750
9665,-121.093750
9666,-121.093750
9667,-121.093750
9668,-121.093750
9669,-121.093750
9670,-121.093750
9671,-121.093750
9672,-121.093750
9673,-121.093750
9674,-121.093750
9675,-121.093750
9676,-125.000000
9677,-125.000000
9678,-125.000000
9679,-125.000000
9680,-125.000000
9681,-125.000000
9682,-125.000000
9683,-125.000000
9684,-125.000000
9685,-125.000000
9686,-125.000000
9687,-125.000000
9688,-125.000000
9689,-125.000000
9690,-125.000000
9691,-125.000000
9692,-125.000000
9693,-125.000000
9694,-128.906250
9695,-128.906250
9696,-125.000000
9697,-128.906250
9698,-128.906250
9699,-128.906250
9700,-128.906250
9701,-125.000000
9702,-128.906250
9703,-128.906250
9704,-128.906250
9705,-128.906250
9706,-128.906250
9707,-128.906250
9708,-128.906250
9709,-128.906250
9710,-128.906250
9711,-128.906250
9712,-128.906250
9713,-128.906250
9714,-128.906250
9715,-128.906250
9716,-128.906250
9717,-128.906250
9718,-128.906250
9719,-128.906250
9720,-128.906250
9721,-128.906250
9722,-128.906250
9723,-128.906250
9724,-128.906250
9725,-128.906250
9726,-128.906250
9727,-128.906250
9728,-128.906250
9729,-128.906250
9730,-128.906250
9731,-128.906250
9732,-128.906250
9733,-128.906250
9734,-128.906250
9735,-128.906250
9736,-128.906250
9737,-128.906250
9738,-128.906250
9739,-128.906250
9740,-128.906250
9741,-128.906250
9742,-132.812500
9743,-128.906250
9744,-128.906250
9745,-125.000000
9746,-128.906250
9747,-128.906250
9748,-132.812500
9749,-128.906250
9750,-128.906250
9751,-128.906250
9752,-125.000000
9753,-128.906250
9754,-125.000000
9755,-125.000000
9756,-125.000000
9757,-128.906250
9758,-125.000000
9759,-125.000000
9760,-125.000000
9761,-125.000000
9762,-125.000000
9763,-125.000000
9764,-125.000000
9765,-125.000000
9766,-125.000000
9767,-125.000000
9768,-125.000000
9769,-125.000000
9770,-125.000000
9771,-125.000000
9772,-125.000000
9773,-125.000000
9774,-125.000000
9775,-121.093750
9776,-125.000000
9777,-121.093750
9778,-121.093750
9779,-121.093750
9780,-121.093750
9781,-121.093750
9782,-121.093750
9783,-121.093750
9784,-121.093750
9785,-121.093750
9786,-117.187500
9787,-117.187500
9788,-117.187500
9789,-117.187500
9790,-117.187500
9791,-117.187500
9792,-117.187500
9793,-117.187500
9794,-117.187500
9795,-117.187500
9796,-117.187500
9797,-117.187500
9798,-113.281250
9799,-113.281250
9800,-113.281250
9801,-113.281250
9802,-113.281250
9803,-113.281250
9804,-113.281250
9805,-113.281250
9806,-113.281250
9807,-113.281250
9808,-113.281250
9809,-109.375000
9810,-109.375000
9811,-109.375000
9812,-109.375000
9813,-109.375000
9814,-109.375000
9815,-109.375000
9816,-109.375000
9817,-109.375000
9818,-105.468750
9819,-105.468750
9820,-105.468750
9821,-105.468750
9822,-105.468750
9823,-105.468750
9824,-105.468750
9825,-105.468750
9826,-101.562500
9827,-101.562500
9828,-101.562500
9829,-101.562500
9830,-101.562500
9831,-101.562500
9832,-101.562500
9833,-101.562500
9834,-97.656250
9835,-97.656250
9836,-97.656250
9837,-97.656250
9838,-97.656250
9839,-97.656250
9840,-97.656250
9841,-97.656250
9842,-93.750000
9843,-93.750000
9844,-93.750000
9845,-93.750000
9846,-93.750000
9847,-93.750000
9848,-93.750000
9849,-89.843750
9850,-89.843750
9851,-89.843750
9852,-89.843750
9853,-89.843750
9854,-89.843750
9855,-85.937500
9856,-85.937500
9857,-85.937500
9858,-85.937500
9859,-85.937500
9860,-85.937500
9861,-82.031250
9862,-82.031250
9863,-82.031250
9864,-82.031250
9865,-82.031250
9866,-82.031250
9867,-82.031250
9868,-78.125000
9869,-78.125000
9870,-78.125000
9871,-78.125000
9872,-78.125000
9873,-78.125000
9874,-74.218750
9875,-74.218750
9876,-74.218750
9877,-74.218750
9878,-74.218750
9879,-70.312500
9880,-70.312500
9881,-70.312500
9882,-70.312500
9883,-70.312500
9884,-70.312500
9885,-70.312500
9886,-66.406250
9887,-66.406250
9888,-66.406250
9889,-66.406250
9890,-66.406250
9891,-66.406250
9892,-62.500000
9893,-62.500000
9894,-62.500000
9895,-62.500000
9896,-62.500000
9897,-58.593750
9898,-58.593750
9899,-58.593750
9900,-58.593750
9901,-58.593750
9902,-58.593750
9903,-54.687500
9904,-54.687500
9905,-54.687500
9906,-54.687500
9907,-54.687500
9908,-54.687500
9909,-50.781250
9910,-50.781250
9911,-50.781250
9912,-50.781250
9913,-50.781250
9914,-46.875000
9915,-46.875000
9916,-46.875000
9917,-46.875000
9918,-46.875000
9919,-46.875000
9920,-42.968750
9921,-42.968750
9922,-42.968750
9923,-42.968750
9924,-42.968750
9925,-39.062500
9926,-39.062500
9927,-39.062500
9928,-39.062500
9929,-39.062500
9930,-39.062500
9931,-35.156250
9932,-35.156250
9933,-35.156250
9934,-35.156250
9935,-31.250000
9936,-31.250000
9937,-31.250000
9938,-31.250000
9939,-31.250000
9940,-31.250000
9941,-27.343750
9942,-27.343750
9943,-27.343750
9944,-27.343750
9945,-27.343750
9946,-27.343750
9947,-23.437500
9948,-23.437500
9949,-23.437500
9950,-23.437500
9951,-23.437500
9952,-19.531250
9953,-19.531250
9954,-19.531250
9955,-19.531250
9956,-19.531250
9957,-15.625000
9958,-15.625000
9959,-15.625000
9960,-15.625000
9961,-11.718750
9962,-11.718750
9963,-11.718750
9964,-11.718750
9965,-11.718750
9966,-11.718750
9967,-7.812500
9968,-7.812500
9969,-7.812500
9970,-7.812500
9971,-7.812500
9972,-7.812500
9973,-3.906250
9974,-3.906250
9975,-3.906250
9976,-3.906250
9977,-3.906250
9978,0.000000
9979,0.000000
9980,0.000000
9981,0.000000
9982,0.000000
9983,0.000000
9984,3.906250
9985,3.906250
9986,3.906250
9987,3.906250
9988,3.906250
9989,7.812500
9990,7.812500
9991,7.812500
9992,7.812500
9993,7.812500
9994,7.812500
9995,11.718750
9996,11.718750
9997,11.718750
9998,11.718750
9999,11.718750
10000,11.718750
