Channel              :,CH1
Frequency            :,1.012kHz
Period               :,0.989ms
PK-PK                :,339.8mV
Probe attenuation    :,1X
Voltage per ADC value:,0.244141mV
Time interval        :,1.00000us

index,CH1_Voltage(mV)
1,-82.031250
2,-82.031250
3,-78.125000
4,-78.125000
5,-78.125000
6,-74.218750
7,-74.218750
8,-74.218750
9,-74.218750
10,-70.312500
11,-70.312500
12,-70.312500
13,-70.312500
14,-66.406250
15,-66.406250
16,-66.406250
17,-66.406250
18,-62.500000
19,-62.500000
20,-62.500000
21,-58.593750
22,-58.593750
23,-58.593750
24,-58.593750
25,-54.687500
26,-54.687500
27,-54.687500
28,-50.781250
29,-50.781250
30,-50.781250
31,-50.781250
32,-46.875000
33,-46.875000
34,-46.875000
35,-46.875000
36,-42.968750
37,-42.968750
38,-42.968750
39,-39.062500
40,-39.062500
41,-39.062500
42,-35.156250
43,-35.156250
44,-35.156250
45,-35.156250
46,-31.250000
47,-31.250000
48,-31.250000
49,-31.250000
50,-27.343750
51,-27.343750
52,-27.343750
53,-27.343750
54,-23.437500
55,-23.437500
56,-23.437500
57,-19.531250
58,-19.531250
59,-19.531250
60,-15.625000
61,-15.625000
62,-15.625000
63,-15.625000
64,-11.718750
65,-11.718750
66,-11.718750
67,-11.718750
68,-7.812500
69,-7.812500
70,-7.812500
71,-7.812500
72,-3.906250
73,-3.906250
74,-3.906250
75,0.000000
76,0.000000
77,0.000000
78,0.000000
79,3.906250
80,3.906250
81,3.906250
82,3.906250
83,7.812500
84,7.812500
85,11.718750
86,11.718750
87,11.718750
88,11.718750
89,11.718750
90,15.625000
91,15.625000
92,15.625000
93,15.625000
94,19.531250
95,19.531250
96,19.531250
97,19.531250
98,23.437500
99,23.437500
100,23.437500
101,27.343750
102,27.343750
103,27.343750
104,31.250000
105,31.250000
106,31.250000
107,31.250000
108,31.250000
109,31.250000
110,35.156250
111,35.156250
112,39.062500
113,39.062500
114,39.062500
115,39.062500
116,39.062500
117,42.968750
118,42.968750
119,42.968750
120,42.968750
121,46.875000
122,46.875000
123,46.875000
124,46.875000
125,50.781250
126,50.781250
127,50.781250
128,54.687500
129,54.687500
130,54.687500
131,54.687500
132,54.687500
133,58.593750
134,58.593750
135,58.593750
136,58.593750
137,58.593750
138,62.500000
139,62.500000
140,62.500000
141,66.406250
142,66.406250
143,66.406250
144,66.406250
145,66.406250
146,70.312500
147,70.312500
148,70.312500
149,70.312500
150,70.312500
151,74.218750
152,74.218750
153,74.218750
154,74.218750
155,78.125000
156,78.125000
157,78.125000
158,78.125000
159,78.125000
160,82.031250
161,82.031250
162,82.031250
163,82.031250
164,82.031250
165,85.937500
166,85.937500
167,85.937500
168,85.937500
169,85.937500
170,89.843750
171,89.843750
172,89.843750
173,89.843750
174,89.843750
175,93.750000
176,93.750000
177,93.750000
178,93.750000
179,93.750000
180,97.656250
181,97.656250
182,97.656250
183,97.656250
184,97.656250
185,101.562500
186,101.562500
187,101.562500
188,101.562500
189,101.562500
190,101.562500
191,101.562500
192,101.562500
193,105.468750
194,105.468750
195,105.468750
196,105.468750
197,105.468750
198,109.375000
199,109.375000
200,109.375000
201,109.375000
202,109.375000
203,109.375000
204,109.375000
205,113.281250
206,113.281250
207,113.281250
208,113.281250
209,113.281250
210,113.281250
211,117.187500
212,117.187500
213,117.187500
214,117.187500
215,117.187500
216,117.187500
217,117.187500
218,117.187500
219,121.093750
220,121.093750
221,121.093750
222,121.093750
223,121.093750
224,121.093750
225,121.093750
226,125.000000
227,125.000000
228,125.000000
229,125.000000
230,125.000000
231,125.000000
232,125.000000
233,125.000000
234,125.000000
235,128.906250
236,128.906250
237,128.906250
238,128.906250
239,128.906250
240,128.906250
241,128.906250
242,128.906250
243,128.906250
244,128.906250
245,128.906250
246,132.812500
247,132.812500
248,132.812500
249,132.812500
250,132.812500
251,132.812500
252,132.812500
253,132.812500
254,132.812500
255,132.812500
256,132.812500
257,136.718750
258,136.718750
259,136.718750
260,136.718750
261,136.718750
262,136.718750
263,136.718750
264,136.718750
265,136.718750
266,136.718750
267,136.718750
268,140.625000
269,140.625000
270,136.718750
271,140.625000
272,140.625000
273,140.625000
274,140.625000
275,144.531250
276,140.625000
277,140.625000
278,140.625000
279,140.625000
280,140.625000
281,140.625000
282,140.625000
283,144.531250
284,144.531250
285,140.625000
286,140.625000
287,144.531250
288,144.531250
289,144.531250
290,144.531250
291,144.531250
292,144.531250
293,144.531250
294,144.531250
295,144.531250
296,144.531250
297,144.531250
298,144.531250
299,144.531250
300,144.531250
301,144.531250
302,144.531250
303,144.531250
304,144.531250
305,144.531250
306,144.531250
307,144.531250
308,144.531250
309,144.531250
310,144.531250
311,144.531250
312,144.531250
313,148.437500
314,144.531250
315,144.531250
316,144.531250
317,144.531250
318,144.531250
319,144.531250
320,144.531250
321,144.531250
322,144.531250
323,144.531250
324,144.531250
325,144.531250
326,144.531250
327,144.531250
328,144.531250
329,144.531250
330,144.531250
331,144.531250
332,144.531250
333,144.531250
334,144.531250
335,144.531250
336,144.531250
337,144.531250
338,144.531250
339,144.531250
340,144.531250
341,144.531250
342,144.531250
343,144.531250
344,144.531250
345,144.531250
346,144.531250
347,144.531250
348,144.531250
349,144.531250
350,144.531250
351,144.531250
352,144.531250
353,144.531250
354,144.531250
355,144.531250
356,144.531250
357,144.531250
358,144.531250
359,144.531250
360,140.625000
361,140.625000
362,140.625000
363,140.625000
364,140.625000
365,140.625000
366,140.625000
367,140.625000
368,140.625000
369,140.625000
370,140.625000
371,140.625000
372,136.718750
373,140.625000
374,140.625000
375,140.625000
376,140.625000
377,136.718750
378,136.718750
379,136.718750
380,136.718750
381,136.718750
382,136.718750
383,136.718750
384,136.718750
385,136.718750
386,136.718750
387,136.718750
388,132.812500
389,132.812500
390,132.812500
391,132.812500
392,132.812500
393,132.812500
394,132.812500
395,132.812500
396,132.812500
397,132.812500
398,132.812500
399,128.906250
400,128.906250
401,128.906250
402,128.906250
403,128.906250
404,128.906250
405,128.906250
406,128.906250
407,128.906250
408,125.000000
409,128.906250
410,125.000000
411,125.000000
412,125.000000
413,125.000000
414,125.000000
415,125.000000
416,125.000000
417,121.093750
418,125.000000
419,121.093750
420,121.093750
421,121.093750
422,121.093750
423,121.093750
424,121.093750
425,121.093750
426,117.187500
427,117.187500
428,117.187500
429,117.187500
430,117.187500
431,117.187500
432,117.187500
433,113.281250
434,113.281250
435,113.281250
436,113.281250
437,113.281250
438,113.281250
439,113.281250
440,109.375000
441,109.375000
442,109.375000
443,109.375000
444,109.375000
445,109.375000
446,105.468750
447,105.468750
448,105.468750
449,105.468750
450,105.468750
451,105.468750
452,105.468750
453,101.562500
454,101.562500
455,101.562500
456,97.656250
457,101.562500
458,97.656250
459,97.656250
460,97.656250
461,97.656250
462,97.656250
463,93.750000
464,93.750000
465,93.750000
466,93.750000
467,93.750000
468,93.750000
469,89.843750
470,89.843750
471,89.843750
472,89.843750
473,85.937500
474,85.937500
475,85.937500
476,85.937500
477,85.937500
478,85.937500
479,82.031250
480,82.031250
481,82.031250
482,78.125000
483,82.031250
484,78.125000
485,78.125000
486,78.125000
487,78.125000
488,74.218750
489,74.218750
490,74.218750
491,74.218750
492,74.218750
493,70.312500
494,70.312500
495,70.312500
496,70.312500
497,66.406250
498,66.406250
499,66.406250
500,66.406250
501,66.406250
502,62.500000
503,62.500000
504,62.500000
505,62.500000
506,58.593750
507,58.593750
508,58.593750
509,58.593750
510,54.687500
511,54.687500
512,54.687500
513,54.687500
514,54.687500
515,50.781250
516,50.781250
517,50.781250
518,50.781250
519,46.875000
520,46.875000
521,46.875000
522,42.968750
523,42.968750
524,42.968750
525,42.968750
526,39.062500
527,39.062500
528,39.062500
529,39.062500
530,39.062500
531,35.156250
532,35.156250
533,35.156250
534,35.156250
535,31.250000
536,31.250000
537,31.250000
538,31.250000
539,27.343750
540,27.343750
541,27.343750
542,27.343750
543,23.437500
544,23.437500
545,23.437500
546,19.531250
547,19.531250
548,19.531250
549,19.531250
550,15.625000
551,15.625000
552,15.625000
553,15.625000
554,11.718750
555,11.718750
556,11.718750
557,7.812500
558,7.812500
559,7.812500
560,7.812500
561,3.906250
562,3.906250
563,3.906250
564,3.906250
565,0.000000
566,0.000000
567,0.000000
568,-3.906250
569,-3.906250
570,-3.906250
571,-3.906250
572,-7.812500
573,-7.812500
574,-7.812500
575,-7.812500
576,-11.718750
577,-11.718750
578,-15.625000
579,-15.625000
580,-15.625000
581,-15.625000
582,-19.531250
583,-19.531250
584,-19.531250
585,-23.437500
586,-23.437500
587,-23.437500
588,-23.437500
589,-23.437500
590,-27.343750
591,-27.343750
592,-27.343750
593,-31.250000
594,-31.250000
595,-31.250000
596,-31.250000
597,-35.156250
598,-35.156250
599,-35.156250
600,-39.062500
601,-39.062500
602,-39.062500
603,-39.062500
604,-42.968750
605,-42.968750
606,-42.968750
607,-46.875000
608,-46.875000
609,-46.875000
610,-50.781250
611,-50.781250
612,-50.781250
613,-50.781250
614,-54.687500
615,-54.687500
616,-54.687500
617,-54.687500
618,-58.593750
619,-58.593750
620,-58.593750
621,-62.500000
622,-62.500000
623,-62.500000
624,-66.406250
625,-66.406250
626,-66.406250
627,-66.406250
628,-66.406250
629,-70.312500
630,-70.312500
631,-70.312500
632,-74.218750
633,-74.218750
634,-74.218750
635,-74.218750
636,-78.125000
637,-78.125000
638,-78.125000
639,-82.031250
640,-82.031250
641,-82.031250
642,-82.031250
643,-85.937500
644,-85.937500
645,-85.937500
646,-85.937500
647,-89.843750
648,-89.843750
649,-89.843750
650,-89.843750
651,-93.750000
652,-93.750000
653,-93.750000
654,-97.656250
655,-97.656250
656,-97.656250
657,-97.656250
658,-97.656250
659,-101.562500
660,-101.562500
661,-101.562500
662,-105.468750
663,-105.468750
664,-105.468750
665,-105.468750
666,-109.375000
667,-109.375000
668,-109.375000
669,-109.375000
670,-113.281250
671,-113.281250
672,-113.281250
673,-113.281250
674,-113.281250
675,-117.187500
676,-117.187500
677,-117.187500
678,-117.187500
679,-121.093750
680,-121.093750
681,-121.093750
682,-121.093750
683,-125.000000
684,-125.000000
685,-125.000000
686,-125.000000
687,-125.000000
688,-128.906250
689,-128.906250
690,-128.906250
691,-132.812500
692,-132.812500
693,-132.812500
694,-132.812500
695,-132.812500
696,-132.812500
697,-136.718750
698,-136.718750
699,-136.718750
700,-140.625000
701,-140.625000
702,-140.625000
703,-140.625000
704,-140.625000
705,-140.625000
706,-144.531250
707,-144.531250
708,-144.531250
709,-144.531250
710,-148.437500
711,-148.437500
712,-148.437500
713,-148.437500
714,-148.437500
715,-148.437500
716,-148.437500
717,-152.343750
718,-152.343750
719,-152.343750
720,-152.343750
721,-152.343750
722,-156.250000
723,-156.250000
724,-156.250000
725,-156.250000
726,-156.250000
727,-156.250000
728,-160.156250
729,-160.156250
730,-160.156250
731,-160.156250
732,-160.156250
733,-164.062500
734,-164.062500
735,-164.062500
736,-164.062500
737,-164.062500
738,-164.062500
739,-164.062500
740,-164.062500
741,-167.968750
742,-167.968750
743,-167.968750
744,-167.968750
745,-167.968750
746,-167.968750
747,-167.968750
748,-171.875000
749,-171.875000
750,-171.875000
751,-171.875000
752,-171.875000
753,-171.875000
754,-171.875000
755,-171.875000
756,-175.781250
757,-175.781250
758,-175.781250
759,-175.781250
760,-175.781250
761,-175.781250
762,-179.687500
763,-175.781250
764,-179.687500
765,-179.687500
766,-179.687500
767,-179.687500
768,-179.687500
769,-179.687500
770,-179.687500
771,-179.687500
772,-179.687500
773,-179.687500
774,-179.687500
775,-183.593750
776,-183.593750
777,-183.593750
778,-183.593750
779,-183.593750
780,-183.593750
781,-183.593750
782,-183.593750
783,-183.593750
784,-183.593750
785,-183.593750
786,-183.593750
787,-183.593750
788,-183.593750
789,-183.593750
790,-187.500000
791,-187.500000
792,-187.500000
793,-187.500000
794,-187.500000
795,-187.500000
796,-187.500000
797,-187.500000
798,-187.500000
799,-187.500000
800,-187.500000
801,-187.500000
802,-187.500000
803,-187.500000
804,-187.500000
805,-187.500000
806,-187.500000
807,-187.500000
808,-187.500000
809,-187.500000
810,-187.500000
811,-187.500000
812,-187.500000
813,-187.500000
814,-187.500000
815,-187.500000
816,-187.500000
817,-187.500000
818,-187.500000
819,-187.500000
820,-187.500000
821,-187.500000
822,-187.500000
823,-187.500000
824,-187.500000
825,-187.500000
826,-187.500000
827,-187.500000
828,-187.500000
829,-187.500000
830,-187.500000
831,-187.500000
832,-187.500000
833,-187.500000
834,-187.500000
835,-187.500000
836,-187.500000
837,-187.500000
838,-187.500000
839,-187.500000
840,-187.500000
841,-183.593750
842,-183.593750
843,-183.593750
844,-183.593750
845,-187.500000
846,-183.593750
847,-183.593750
848,-183.593750
849,-183.593750
850,-183.593750
851,-183.593750
852,-183.593750
853,-183.593750
854,-183.593750
855,-183.593750
856,-183.593750
857,-183.593750
858,-179.687500
859,-179.687500
860,-179.687500
861,-179.687500
862,-179.687500
863,-179.687500
864,-179.687500
865,-179.687500
866,-179.687500
867,-175.781250
868,-179.687500
869,-175.781250
870,-175.781250
871,-175.781250
872,-175.781250
873,-175.781250
874,-175.781250
875,-175.781250
876,-175.781250
877,-175.781250
878,-175.781250
879,-171.875000
880,-171.875000
881,-171.875000
882,-171.875000
883,-171.875000
884,-171.875000
885,-171.875000
886,-167.968750
887,-167.968750
888,-167.968750
889,-167.968750
890,-167.968750
891,-167.968750
892,-164.062500
893,-164.062500
894,-164.062500
895,-164.062500
896,-164.062500
897,-164.062500
898,-164.062500
899,-160.156250
900,-160.156250
901,-160.156250
902,-160.156250
903,-160.156250
904,-160.156250
905,-160.156250
906,-156.250000
907,-156.250000
908,-156.250000
909,-156.250000
910,-156.250000
911,-156.250000
912,-152.343750
913,-152.343750
914,-152.343750
915,-152.343750
916,-152.343750
917,-152.343750
918,-148.437500
919,-148.437500
920,-148.437500
921,-148.437500
922,-148.437500
923,-144.531250
924,-144.531250
925,-144.531250
926,-144.531250
927,-140.625000
928,-140.625000
929,-140.625000
930,-140.625000
931,-136.718750
932,-136.718750
933,-136.718750
934,-136.718750
935,-136.718750
936,-136.718750
937,-132.812500
938,-132.812500
939,-132.812500
940,-132.812500
941,-132.812500
942,-128.906250
943,-128.906250
944,-128.906250
945,-125.000000
946,-125.000000
947,-125.000000
948,-125.000000
949,-125.000000
950,-125.000000
951,-121.093750
952,-121.093750
953,-121.093750
954,-117.187500
955,-117.187500
956,-117.187500
957,-117.187500
958,-117.187500
959,-113.281250
960,-113.281250
961,-113.281250
962,-113.281250
963,-109.375000
964,-109.375000
965,-109.375000
966,-109.375000
967,-105.468750
968,-105.468750
969,-105.468750
970,-105.468750
971,-101.562500
972,-101.562500
973,-101.562500
974,-97.656250
975,-97.656250
976,-97.656250
977,-97.656250
978,-97.656250
979,-93.750000
980,-93.750000
981,-93.750000
982,-93.750000
983,-89.843750
984,-89.843750
985,-89.843750
986,-89.843750
987,-85.937500
988,-85.937500
989,-85.937500
990,-82.031250
991,-82.031250
992,-82.031250
993,-82.031250
994,-78.125000
995,-78.125000
996,-78.125000
997,-78.125000
998,-74.218750
999,-74.218750
1000,-74.218750
1001,-74.218750
1002,-70.312500
1003,-70.312500
1004,-70.312500
1005,-66.406250
1006,-66.406250
1007,-66.406250
1008,-62.500000
1009,-62.500000
1010,-62.500000
1011,-62.500000
1012,-62.500000
1013,-58.593750
1014,-58.593750
1015,-58.593750
1016,-54.687500
1017,-54.687500
1018,-54.687500
1019,-50.781250
1020,-50.781250
1021,-50.781250
1022,-50.781250
1023,-46.875000
1024,-46.875000
1025,-46.875000
1026,-46.875000
1027,-42.968750
1028,-42.968750
1029,-42.968750
1030,-39.062500
1031,-39.062500
1032,-39.062500
1033,-39.062500
1034,-35.156250
1035,-35.156250
1036,-35.156250
1037,-31.250000
1038,-31.250000
1039,-31.250000
1040,-27.343750
1041,-27.343750
1042,-27.343750
1043,-27.343750
1044,-23.437500
1045,-23.437500
1046,-23.437500
1047,-19.531250
1048,-19.531250
1049,-19.531250
1050,-15.625000
1051,-15.625000
1052,-15.625000
1053,-15.625000
1054,-15.625000
1055,-11.718750
1056,-11.718750
1057,-11.718750
1058,-7.812500
1059,-7.812500
1060,-7.812500
1061,-7.812500
1062,-3.906250
1063,-3.906250
1064,-3.906250
1065,0.000000
1066,0.000000
1067,0.000000
1068,0.000000
1069,3.906250
1070,3.906250
1071,3.906250
1072,3.906250
1073,7.812500
1074,7.812500
1075,7.812500
1076,7.812500
1077,11.718750
1078,11.718750
1079,11.718750
1080,15.625000
1081,15.625000
1082,15.625000
1083,15.625000
1084,19.531250
1085,19.531250
1086,19.531250
1087,23.437500
1088,23.437500
1089,23.437500
1090,23.437500
1091,27.343750
1092,27.343750
1093,27.343750
1094,27.343750
1095,31.250000
1096,31.250000
1097,31.250000
1098,31.250000
1099,31.250000
1100,35.156250
1101,35.156250
1102,35.156250
1103,39.062500
1104,39.062500
1105,39.062500
1106,39.062500
1107,42.968750
1108,42.968750
1109,42.968750
1110,42.968750
1111,46.875000
1112,46.875000
1113,46.875000
1114,46.875000
1115,50.781250
1116,50.781250
1117,50.781250
1118,50.781250
1119,54.687500
1120,54.687500
1121,54.687500
1122,54.687500
1123,54.687500
1124,58.593750
1125,58.593750
1126,58.593750
1127,58.593750
1128,62.500000
1129,62.500000
1130,62.500000
1131,62.500000
1132,62.500000
1133,66.406250
1134,66.406250
1135,66.406250
1136,66.406250
1137,70.312500
1138,70.312500
1139,70.312500
1140,70.312500
1141,70.312500
1142,74.218750
1143,74.218750
1144,74.218750
1145,74.218750
1146,74.218750
1147,78.125000
1148,78.125000
1149,78.125000
1150,78.125000
1151,78.125000
1152,82.031250
1153,82.031250
1154,82.031250
1155,82.031250
1156,85.937500
1157,85.937500
1158,85.937500
1159,85.937500
1160,89.843750
1161,89.843750
1162,89.843750
1163,89.843750
1164,89.843750
1165,89.843750
1166,93.750000
1167,93.750000
1168,93.750000
1169,93.750000
1170,93.750000
1171,97.656250
1172,97.656250
1173,97.656250
1174,97.656250
1175,97.656250
1176,97.656250
1177,101.562500
1178,101.562500
1179,101.562500
1180,101.562500
1181,101.562500
1182,101.562500
1183,105.468750
1184,105.468750
1185,105.468750
1186,105.468750
1187,105.468750
1188,105.468750
1189,109.375000
1190,109.375000
1191,109.375000
1192,109.375000
1193,109.375000
1194,109.375000
1195,113.281250
1196,113.281250
1197,113.281250
1198,113.281250
1199,113.281250
1200,113.281250
1201,113.281250
1202,117.187500
1203,117.187500
1204,117.187500
1205,117.187500
1206,117.187500
1207,117.187500
1208,121.093750
1209,117.187500
1210,121.093750
1211,121.093750
1212,121.093750
1213,121.093750
1214,121.093750
1215,121.093750
1216,121.093750
1217,125.000000
1218,125.000000
1219,125.000000
1220,125.000000
1221,125.000000
1222,125.000000
1223,125.000000
1224,125.000000
1225,125.000000
1226,128.906250
1227,128.906250
1228,128.906250
1229,128.906250
1230,128.906250
1231,128.906250
1232,128.906250
1233,128.906250
1234,128.906250
1235,128.906250
1236,128.906250
1237,132.812500
1238,132.812500
1239,132.812500
1240,132.812500
1241,132.812500
1242,132.812500
1243,132.812500
1244,132.812500
1245,132.812500
1246,132.812500
1247,136.718750
1248,136.718750
1249,136.718750
1250,136.718750
1251,136.718750
1252,136.718750
1253,136.718750
1254,136.718750
1255,136.718750
1256,136.718750
1257,136.718750
1258,136.718750
1259,136.718750
1260,136.718750
1261,140.625000
1262,140.625000
1263,140.625000
1264,140.625000
1265,140.625000
1266,140.625000
1267,140.625000
1268,140.625000
1269,140.625000
1270,140.625000
1271,140.625000
1272,140.625000
1273,140.625000
1274,140.625000
1275,140.625000
1276,144.531250
1277,144.531250
1278,140.625000
1279,144.531250
1280,144.531250
1281,144.531250
1282,144.531250
1283,144.531250
1284,144.531250
1285,144.531250
1286,144.531250
1287,144.531250
1288,144.531250
1289,144.531250
1290,144.531250
1291,144.531250
1292,144.531250
1293,144.531250
1294,144.531250
1295,144.531250
1296,144.531250
1297,144.531250
1298,144.531250
1299,144.531250
1300,144.531250
1301,144.531250
1302,144.531250
1303,144.531250
1304,144.531250
1305,144.531250
1306,144.531250
1307,144.531250
1308,144.531250
1309,144.531250
1310,144.531250
1311,144.531250
1312,144.531250
1313,148.437500
1314,144.531250
1315,144.531250
1316,144.531250
1317,144.531250
1318,144.531250
1319,144.531250
1320,144.531250
1321,144.531250
1322,144.531250
1323,144.531250
1324,144.531250
1325,144.531250
1326,144.531250
1327,144.531250
1328,144.531250
1329,144.531250
1330,144.531250
1331,144.531250
1332,144.531250
1333,144.531250
1334,144.531250
1335,144.531250
1336,144.531250
1337,144.531250
1338,144.531250
1339,144.531250
1340,144.531250
1341,144.531250
1342,144.531250
1343,144.531250
1344,144.531250
1345,144.531250
1346,144.531250
1347,144.531250
1348,140.625000
1349,144.531250
1350,140.625000
1351,144.531250
1352,140.625000
1353,140.625000
1354,140.625000
1355,140.625000
1356,140.625000
1357,140.625000
1358,140.625000
1359,140.625000
1360,140.625000
1361,140.625000
1362,140.625000
1363,136.718750
1364,140.625000
1365,140.625000
1366,136.718750
1367,136.718750
1368,136.718750
1369,136.718750
1370,136.718750
1371,136.718750
1372,136.718750
1373,136.718750
1374,136.718750
1375,136.718750
1376,136.718750
1377,136.718750
1378,132.812500
1379,132.812500
1380,132.812500
1381,132.812500
1382,132.812500
1383,132.812500
1384,132.812500
1385,132.812500
1386,132.812500
1387,132.812500
1388,128.906250
1389,128.906250
1390,128.906250
1391,132.812500
1392,128.906250
1393,128.906250
1394,128.906250
1395,128.906250
1396,128.906250
1397,128.906250
1398,125.000000
1399,125.000000
1400,125.000000
1401,125.000000
1402,125.000000
1403,125.000000
1404,125.000000
1405,125.000000
1406,121.093750
1407,121.093750
1408,121.093750
1409,121.093750
1410,121.093750
1411,121.093750
1412,121.093750
1413,121.093750
1414,117.187500
1415,117.187500
1416,117.187500
1417,117.187500
1418,117.187500
1419,117.187500
1420,117.187500
1421,117.187500
1422,113.281250
1423,113.281250
1424,113.281250
1425,113.281250
1426,113.281250
1427,113.281250
1428,113.281250
1429,109.375000
1430,109.375000
1431,109.375000
1432,109.375000
1433,109.375000
1434,109.375000
1435,105.468750
1436,105.468750
1437,105.468750
1438,105.468750
1439,105.468750
1440,105.468750
1441,105.468750
1442,101.562500
1443,101.562500
1444,101.562500
1445,101.562500
1446,101.562500
1447,97.656250
1448,97.656250
1449,97.656250
1450,97.656250
1451,97.656250
1452,97.656250
1453,97.656250
1454,93.750000
1455,93.750000
1456,93.750000
1457,93.750000
1458,89.843750
1459,89.843750
1460,89.843750
1461,89.843750
1462,89.843750
1463,89.843750
1464,85.937500
1465,85.937500
1466,85.937500
1467,85.937500
1468,82.031250
1469,82.031250
1470,82.031250
1471,82.031250
1472,82.031250
1473,82.031250
1474,78.125000
1475,78.125000
1476,78.125000
1477,78.125000
1478,78.125000
1479,74.218750
1480,74.218750
1481,74.218750
1482,74.218750
1483,70.312500
1484,70.312500
1485,70.312500
1486,70.312500
1487,70.312500
1488,66.406250
1489,66.406250
1490,66.406250
1491,62.500000
1492,62.500000
1493,62.500000
1494,62.500000
1495,58.593750
1496,58.593750
1497,58.593750
1498,58.593750
1499,58.593750
1500,54.687500
1501,54.687500
1502,54.687500
1503,54.687500
1504,50.781250
1505,50.781250
1506,50.781250
1507,50.781250
1508,46.875000
1509,46.875000
1510,46.875000
1511,46.875000
1512,46.875000
1513,42.968750
1514,42.968750
1515,42.968750
1516,42.968750
1517,39.062500
1518,39.062500
1519,39.062500
1520,35.156250
1521,35.156250
1522,35.156250
1523,35.156250
1524,35.156250
1525,31.250000
1526,31.250000
1527,31.250000
1528,27.343750
1529,27.343750
1530,27.343750
1531,27.343750
1532,23.437500
1533,23.437500
1534,23.437500
1535,23.437500
1536,19.531250
1537,19.531250
1538,19.531250
1539,15.625000
1540,15.625000
1541,15.625000
1542,15.625000
1543,11.718750
1544,11.718750
1545,11.718750
1546,11.718750
1547,7.812500
1548,7.812500
1549,7.812500
1550,3.906250
1551,3.906250
1552,3.906250
1553,3.906250
1554,0.000000
1555,0.000000
1556,0.000000
1557,0.000000
1558,0.000000
1559,-3.906250
1560,-3.906250
1561,-3.906250
1562,-7.812500
1563,-7.812500
1564,-7.812500
1565,-11.718750
1566,-11.718750
1567,-11.718750
1568,-11.718750
1569,-15.625000
1570,-15.625000
1571,-15.625000
1572,-19.531250
1573,-19.531250
1574,-19.531250
1575,-19.531250
1576,-23.437500
1577,-23.437500
1578,-23.437500
1579,-27.343750
1580,-27.343750
1581,-27.343750
1582,-27.343750
1583,-31.250000
1584,-31.250000
1585,-31.250000
1586,-35.156250
1587,-35.156250
1588,-35.156250
1589,-35.156250
1590,-39.062500
1591,-39.062500
1592,-39.062500
1593,-42.968750
1594,-42.968750
1595,-42.968750
1596,-42.968750
1597,-42.968750
1598,-46.875000
1599,-46.875000
1600,-46.875000
1601,-50.781250
1602,-50.781250
1603,-50.781250
1604,-54.687500
1605,-54.687500
1606,-54.687500
1607,-54.687500
1608,-54.687500
1609,-58.593750
1610,-58.593750
1611,-58.593750
1612,-62.500000
1613,-62.500000
1614,-62.500000
1615,-66.406250
1616,-66.406250
1617,-66.406250
1618,-66.406250
1619,-70.312500
1620,-70.312500
1621,-70.312500
1622,-70.312500
1623,-74.218750
1624,-74.218750
1625,-74.218750
1626,-78.125000
1627,-78.125000
1628,-78.125000
1629,-78.125000
1630,-82.031250
1631,-82.031250
1632,-82.031250
1633,-82.031250
1634,-85.937500
1635,-85.937500
1636,-85.937500
1637,-89.843750
1638,-89.843750
1639,-89.843750
1640,-89.843750
1641,-93.750000
1642,-93.750000
1643,-93.750000
1644,-93.750000
1645,-97.656250
1646,-97.656250
1647,-97.656250
1648,-101.562500
1649,-101.562500
1650,-101.562500
1651,-101.562500
1652,-105.468750
1653,-105.468750
1654,-105.468750
1655,-105.468750
1656,-109.375000
1657,-109.375000
1658,-109.375000
1659,-109.375000
1660,-109.375000
1661,-113.281250
1662,-113.281250
1663,-113.281250
1664,-117.187500
1665,-117.187500
1666,-117.187500
1667,-117.187500
1668,-117.187500
1669,-121.093750
1670,-121.093750
1671,-121.093750
1672,-121.093750
1673,-121.093750
1674,-125.000000
1675,-125.000000
1676,-125.000000
1677,-125.000000
1678,-128.906250
1679,-128.906250
1680,-128.906250
1681,-128.906250
1682,-132.812500
1683,-132.812500
1684,-132.812500
1685,-132.812500
1686,-132.812500
1687,-136.718750
1688,-136.718750
1689,-136.718750
1690,-136.718750
1691,-136.718750
1692,-140.625000
1693,-140.625000
1694,-140.625000
1695,-140.625000
1696,-140.625000
1697,-140.625000
1698,-144.531250
1699,-144.531250
1700,-144.531250
1701,-144.531250
1702,-148.437500
1703,-148.437500
1704,-148.437500
1705,-148.437500
1706,-148.437500
1707,-148.437500
1708,-152.343750
1709,-152.343750
1710,-152.343750
1711,-152.343750
1712,-152.343750
1713,-152.343750
1714,-156.250000
1715,-156.250000
1716,-156.250000
1717,-156.250000
1718,-156.250000
1719,-156.250000
1720,-160.156250
1721,-160.156250
1722,-160.156250
1723,-160.156250
1724,-160.156250
1725,-160.156250
1726,-164.062500
1727,-164.062500
1728,-164.062500
1729,-164.062500
1730,-164.062500
1731,-164.062500
1732,-167.968750
1733,-167.968750
1734,-167.968750
1735,-167.968750
1736,-167.968750
1737,-167.968750
1738,-167.968750
1739,-167.968750
1740,-167.968750
1741,-167.968750
1742,-171.875000
1743,-171.875000
1744,-171.875000
1745,-171.875000
1746,-171.875000
1747,-171.875000
1748,-175.781250
1749,-175.781250
1750,-175.781250
1751,-175.781250
1752,-175.781250
1753,-175.781250
1754,-175.781250
1755,-175.781250
1756,-175.781250
1757,-179.687500
1758,-175.781250
1759,-179.687500
1760,-175.781250
1761,-179.687500
1762,-179.687500
1763,-179.687500
1764,-179.687500
1765,-179.687500
1766,-179.687500
1767,-179.687500
1768,-183.593750
1769,-183.593750
1770,-179.687500
1771,-183.593750
1772,-179.687500
1773,-183.593750
1774,-183.593750
1775,-183.593750
1776,-183.593750
1777,-183.593750
1778,-183.593750
1779,-183.593750
1780,-183.593750
1781,-183.593750
1782,-183.593750
1783,-183.593750
1784,-183.593750
1785,-187.500000
1786,-187.500000
1787,-187.500000
1788,-183.593750
1789,-187.500000
1790,-187.500000
1791,-187.500000
1792,-187.500000
1793,-187.500000
1794,-187.500000
1795,-187.500000
1796,-187.500000
1797,-187.500000
1798,-187.500000
1799,-187.500000
1800,-187.500000
1801,-187.500000
1802,-187.500000
1803,-187.500000
1804,-187.500000
1805,-187.500000
1806,-187.500000
1807,-187.500000
1808,-187.500000
1809,-187.500000
1810,-187.500000
1811,-187.500000
1812,-187.500000
1813,-187.500000
1814,-187.500000
1815,-187.500000
1816,-187.500000
1817,-187.500000
1818,-187.500000
1819,-187.500000
1820,-187.500000
1821,-187.500000
1822,-187.500000
1823,-183.593750
1824,-183.593750
1825,-187.500000
1826,-183.593750
1827,-183.593750
1828,-183.593750
1829,-183.593750
1830,-183.593750
1831,-183.593750
1832,-183.593750
1833,-183.593750
1834,-183.593750
1835,-183.593750
1836,-183.593750
1837,-183.593750
1838,-183.593750
1839,-183.593750
1840,-183.593750
1841,-183.593750
1842,-183.593750
1843,-179.687500
1844,-183.593750
1845,-179.687500
1846,-179.687500
1847,-179.687500
1848,-179.687500
1849,-179.687500
1850,-179.687500
1851,-179.687500
1852,-179.687500
1853,-179.687500
1854,-179.687500
1855,-175.781250
1856,-175.781250
1857,-175.781250
1858,-175.781250
1859,-175.781250
1860,-175.781250
1861,-175.781250
1862,-175.781250
1863,-171.875000
1864,-171.875000
1865,-171.875000
1866,-171.875000
1867,-171.875000
1868,-171.875000
1869,-171.875000
1870,-171.875000
1871,-171.875000
1872,-167.968750
1873,-167.968750
1874,-167.968750
1875,-167.968750
1876,-167.968750
1877,-167.968750
1878,-167.968750
1879,-164.062500
1880,-164.062500
1881,-164.062500
1882,-164.062500
1883,-164.062500
1884,-164.062500
1885,-164.062500
1886,-164.062500
1887,-160.156250
1888,-160.156250
1889,-160.156250
1890,-160.156250
1891,-160.156250
1892,-156.250000
1893,-156.250000
1894,-156.250000
1895,-156.250000
1896,-156.250000
1897,-156.250000
1898,-156.250000
1899,-152.343750
1900,-152.343750
1901,-152.343750
1902,-152.343750
1903,-152.343750
1904,-152.343750
1905,-148.437500
1906,-148.437500
1907,-148.437500
1908,-148.437500
1909,-148.437500
1910,-148.437500
1911,-144.531250
1912,-144.531250
1913,-144.531250
1914,-144.531250
1915,-144.531250
1916,-140.625000
1917,-140.625000
1918,-140.625000
1919,-140.625000
1920,-140.625000
1921,-136.718750
1922,-136.718750
1923,-136.718750
1924,-136.718750
1925,-132.812500
1926,-132.812500
1927,-132.812500
1928,-132.812500
1929,-132.812500
1930,-128.906250
1931,-128.906250
1932,-128.906250
1933,-128.906250
1934,-125.000000
1935,-125.000000
1936,-125.000000
1937,-125.000000
1938,-125.000000
1939,-121.093750
1940,-121.093750
1941,-121.093750
1942,-121.093750
1943,-117.187500
1944,-117.187500
1945,-117.187500
1946,-117.187500
1947,-113.281250
1948,-113.281250
1949,-113.281250
1950,-113.281250
1951,-109.375000
1952,-109.375000
1953,-109.375000
1954,-109.375000
1955,-105.468750
1956,-105.468750
1957,-105.468750
1958,-105.468750
1959,-105.468750
1960,-101.562500
1961,-101.562500
1962,-101.562500
1963,-97.656250
1964,-97.656250
1965,-97.656250
1966,-97.656250
1967,-93.750000
1968,-93.750000
1969,-93.750000
1970,-93.750000
1971,-89.843750
1972,-89.843750
1973,-89.843750
1974,-89.843750
1975,-85.937500
1976,-85.937500
1977,-85.937500
1978,-82.031250
1979,-82.031250
1980,-82.031250
1981,-82.031250
1982,-78.125000
1983,-78.125000
1984,-78.125000
1985,-74.218750
1986,-74.218750
1987,-74.218750
1988,-74.218750
1989,-70.312500
1990,-70.312500
1991,-70.312500
1992,-70.312500
1993,-66.406250
1994,-66.406250
1995,-66.406250
1996,-66.406250
1997,-62.500000
1998,-62.500000
1999,-62.500000
2000,-62.500000
2001,-58.593750
2002,-58.593750
2003,-58.593750
2004,-54.687500
2005,-54.687500
2006,-54.687500
2007,-54.687500
2008,-50.781250
2009,-50.781250
2010,-50.781250
2011,-46.875000
2012,-46.875000
2013,-46.875000
2014,-46.875000
2015,-42.968750
2016,-42.968750
2017,-42.968750
2018,-39.062500
2019,-39.062500
2020,-39.062500
2021,-39.062500
2022,-35.156250
2023,-35.156250
2024,-35.156250
2025,-35.156250
2026,-31.250000
2027,-31.250000
2028,-27.343750
2029,-27.343750
2030,-27.343750
2031,-27.343750
2032,-27.343750
2033,-23.437500
2034,-23.437500
2035,-23.437500
2036,-19.531250
2037,-19.531250
2038,-19.531250
2039,-19.531250
2040,-15.625000
2041,-15.625000
2042,-15.625000
2043,-11.718750
2044,-11.718750
2045,-11.718750
2046,-11.718750
2047,-7.812500
2048,-7.812500
2049,-7.812500
2050,-3.906250
2051,-3.906250
2052,-3.906250
2053,-3.906250
2054,0.000000
2055,0.000000
2056,0.000000
2057,0.000000
2058,3.906250
2059,3.906250
2060,7.812500
2061,7.812500
2062,7.812500
2063,7.812500
2064,7.812500
2065,11.718750
2066,11.718750
2067,11.718750
2068,11.718750
2069,15.625000
2070,15.625000
2071,15.625000
2072,15.625000
2073,19.531250
2074,19.531250
2075,19.531250
2076,23.437500
2077,23.437500
2078,23.437500
2079,23.437500
2080,27.343750
2081,27.343750
2082,27.343750
2083,31.250000
2084,31.250000
2085,31.250000
2086,31.250000
2087,35.156250
2088,35.156250
2089,35.156250
2090,35.156250
2091,35.156250
2092,39.062500
2093,39.062500
2094,39.062500
2095,42.968750
2096,42.968750
2097,42.968750
2098,42.968750
2099,46.875000
2100,46.875000
2101,46.875000
2102,46.875000
2103,46.875000
2104,50.781250
2105,50.781250
2106,50.781250
2107,54.687500
2108,54.687500
2109,54.687500
2110,54.687500
2111,54.687500
2112,58.593750
2113,58.593750
2114,58.593750
2115,58.593750
2116,62.500000
2117,62.500000
2118,62.500000
2119,62.500000
2120,66.406250
2121,66.406250
2122,66.406250
2123,66.406250
2124,66.406250
2125,70.312500
2126,70.312500
2127,70.312500
2128,70.312500
2129,70.312500
2130,74.218750
2131,74.218750
2132,74.218750
2133,74.218750
2134,78.125000
2135,78.125000
2136,78.125000
2137,78.125000
2138,78.125000
2139,82.031250
2140,82.031250
2141,82.031250
2142,82.031250
2143,82.031250
2144,85.937500
2145,85.937500
2146,85.937500
2147,85.937500
2148,85.937500
2149,89.843750
2150,89.843750
2151,89.843750
2152,89.843750
2153,89.843750
2154,89.843750
2155,93.750000
2156,93.750000
2157,93.750000
2158,93.750000
2159,93.750000
2160,97.656250
2161,97.656250
2162,97.656250
2163,97.656250
2164,97.656250
2165,97.656250
2166,101.562500
2167,101.562500
2168,101.562500
2169,101.562500
2170,101.562500
2171,105.468750
2172,105.468750
2173,105.468750
2174,105.468750
2175,105.468750
2176,105.468750
2177,109.375000
2178,109.375000
2179,109.375000
2180,109.375000
2181,109.375000
2182,109.375000
2183,109.375000
2184,113.281250
2185,113.281250
2186,113.281250
2187,113.281250
2188,113.281250
2189,113.281250
2190,117.187500
2191,117.187500
2192,117.187500
2193,117.187500
2194,117.187500
2195,117.187500
2196,117.187500
2197,117.187500
2198,117.187500
2199,121.093750
2200,121.093750
2201,121.093750
2202,121.093750
2203,121.093750
2204,121.093750
2205,121.093750
2206,125.000000
2207,125.000000
2208,125.000000
2209,125.000000
2210,125.000000
2211,125.000000
2212,125.000000
2213,125.000000
2214,128.906250
2215,128.906250
2216,128.906250
2217,128.906250
2218,128.906250
2219,128.906250
2220,128.906250
2221,128.906250
2222,128.906250
2223,132.812500
2224,128.906250
2225,132.812500
2226,132.812500
2227,132.812500
2228,132.812500
2229,132.812500
2230,132.812500
2231,132.812500
2232,132.812500
2233,132.812500
2234,136.718750
2235,136.718750
2236,136.718750
2237,136.718750
2238,136.718750
2239,136.718750
2240,136.718750
2241,136.718750
2242,136.718750
2243,136.718750
2244,136.718750
2245,140.625000
2246,136.718750
2247,140.625000
2248,140.625000
2249,140.625000
2250,140.625000
2251,140.625000
2252,140.625000
2253,140.625000
2254,140.625000
2255,140.625000
2256,140.625000
2257,140.625000
2258,140.625000
2259,140.625000
2260,140.625000
2261,140.625000
2262,140.625000
2263,140.625000
2264,144.531250
2265,144.531250
2266,144.531250
2267,144.531250
2268,144.531250
2269,144.531250
2270,144.531250
2271,144.531250
2272,144.531250
2273,144.531250
2274,144.531250
2275,144.531250
2276,144.531250
2277,144.531250
2278,144.531250
2279,144.531250
2280,144.531250
2281,144.531250
2282,144.531250
2283,144.531250
2284,144.531250
2285,144.531250
2286,144.531250
2287,144.531250
2288,144.531250
2289,144.531250
2290,144.531250
2291,144.531250
2292,144.531250
2293,144.531250
2294,144.531250
2295,144.531250
2296,144.531250
2297,144.531250
2298,144.531250
2299,144.531250
2300,144.531250
2301,144.531250
2302,144.531250
2303,144.531250
2304,144.531250
2305,144.531250
2306,144.531250
2307,144.531250
2308,144.531250
2309,144.531250
2310,144.531250
2311,144.531250
2312,144.531250
2313,144.531250
2314,144.531250
2315,144.531250
2316,144.531250
2317,144.531250
2318,144.531250
2319,144.531250
2320,144.531250
2321,144.531250
2322,144.531250
2323,144.531250
2324,144.531250
2325,144.531250
2326,144.531250
2327,144.531250
2328,144.531250
2329,144.531250
2330,144.531250
2331,144.531250
2332,144.531250
2333,144.531250
2334,144.531250
2335,144.531250
2336,140.625000
2337,140.625000
2338,140.625000
2339,140.625000
2340,140.625000
2341,140.625000
2342,140.625000
2343,140.625000
2344,140.625000
2345,140.625000
2346,140.625000
2347,140.625000
2348,140.625000
2349,140.625000
2350,140.625000
2351,140.625000
2352,140.625000
2353,140.625000
2354,140.625000
2355,140.625000
2356,140.625000
2357,136.718750
2358,136.718750
2359,136.718750
2360,136.718750
2361,136.718750
2362,136.718750
2363,136.718750
2364,136.718750
2365,136.718750
2366,136.718750
2367,136.718750
2368,132.812500
2369,132.812500
2370,132.812500
2371,132.812500
2372,132.812500
2373,132.812500
2374,132.812500
2375,132.812500
2376,132.812500
2377,132.812500
2378,128.906250
2379,132.812500
2380,128.906250
2381,128.906250
2382,128.906250
2383,128.906250
2384,128.906250
2385,128.906250
2386,128.906250
2387,128.906250
2388,125.000000
2389,125.000000
2390,125.000000
2391,125.000000
2392,125.000000
2393,125.000000
2394,125.000000
2395,125.000000
2396,125.000000
2397,121.093750
2398,121.093750
2399,121.093750
2400,121.093750
2401,121.093750
2402,121.093750
2403,121.093750
2404,117.187500
2405,117.187500
2406,117.187500
2407,117.187500
2408,117.187500
2409,117.187500
2410,117.187500
2411,117.187500
2412,113.281250
2413,113.281250
2414,113.281250
2415,113.281250
2416,113.281250
2417,113.281250
2418,113.281250
2419,109.375000
2420,109.375000
2421,109.375000
2422,109.375000
2423,109.375000
2424,105.468750
2425,105.468750
2426,105.468750
2427,105.468750
2428,105.468750
2429,105.468750
2430,101.562500
2431,101.562500
2432,101.562500
2433,101.562500
2434,101.562500
2435,101.562500
2436,97.656250
2437,97.656250
2438,97.656250
2439,97.656250
2440,97.656250
2441,97.656250
2442,93.750000
2443,93.750000
2444,93.750000
2445,93.750000
2446,93.750000
2447,93.750000
2448,89.843750
2449,89.843750
2450,89.843750
2451,89.843750
2452,85.937500
2453,85.937500
2454,85.937500
2455,85.937500
2456,85.937500
2457,82.031250
2458,82.031250
2459,82.031250
2460,82.031250
2461,82.031250
2462,78.125000
2463,78.125000
2464,78.125000
2465,78.125000
2466,78.125000
2467,78.125000
2468,74.218750
2469,74.218750
2470,74.218750
2471,70.312500
2472,70.312500
2473,70.312500
2474,70.312500
2475,70.312500
2476,70.312500
2477,66.406250
2478,66.406250
2479,66.406250
2480,66.406250
2481,62.500000
2482,62.500000
2483,62.500000
2484,62.500000
2485,62.500000
2486,58.593750
2487,58.593750
2488,58.593750
2489,58.593750
2490,54.687500
2491,54.687500
2492,54.687500
2493,54.687500
2494,50.781250
2495,50.781250
2496,50.781250
2497,50.781250
2498,46.875000
2499,46.875000
2500,46.875000
2501,46.875000
2502,46.875000
2503,42.968750
2504,42.968750
2505,42.968750
2506,39.062500
2507,39.062500
2508,39.062500
2509,39.062500
2510,35.156250
2511,35.156250
2512,35.156250
2513,31.250000
2514,31.250000
2515,31.250000
2516,31.250000
2517,27.343750
2518,27.343750
2519,27.343750
2520,27.343750
2521,23.437500
2522,23.437500
2523,23.437500
2524,23.437500
2525,19.531250
2526,19.531250
2527,19.531250
2528,19.531250
2529,15.625000
2530,15.625000
2531,15.625000
2532,11.718750
2533,11.718750
2534,11.718750
2535,11.718750
2536,11.718750
2537,7.812500
2538,7.812500
2539,3.906250
2540,3.906250
2541,3.906250
2542,3.906250
2543,3.906250
2544,0.000000
2545,0.000000
2546,0.000000
2547,-3.906250
2548,-3.906250
2549,-3.906250
2550,-7.812500
2551,-7.812500
2552,-7.812500
2553,-7.812500
2554,-11.718750
2555,-11.718750
2556,-11.718750
2557,-11.718750
2558,-15.625000
2559,-15.625000
2560,-15.625000
2561,-19.531250
2562,-19.531250
2563,-19.531250
2564,-23.437500
2565,-23.437500
2566,-23.437500
2567,-23.437500
2568,-27.343750
2569,-27.343750
2570,-27.343750
2571,-27.343750
2572,-31.250000
2573,-31.250000
2574,-31.250000
2575,-35.156250
2576,-35.156250
2577,-35.156250
2578,-35.156250
2579,-39.062500
2580,-39.062500
2581,-39.062500
2582,-42.968750
2583,-42.968750
2584,-42.968750
2585,-46.875000
2586,-42.968750
2587,-46.875000
2588,-46.875000
2589,-50.781250
2590,-50.781250
2591,-50.781250
2592,-50.781250
2593,-50.781250
2594,-54.687500
2595,-58.593750
2596,-54.687500
2597,-58.593750
2598,-58.593750
2599,-58.593750
2600,-62.500000
2601,-62.500000
2602,-62.500000
2603,-62.500000
2604,-66.406250
2605,-66.406250
2606,-66.406250
2607,-66.406250
2608,-70.312500
2609,-74.218750
2610,-70.312500
2611,-70.312500
2612,-74.218750
2613,-74.218750
2614,-74.218750
2615,-78.125000
2616,-78.125000
2617,-78.125000
2618,-78.125000
2619,-82.031250
2620,-82.031250
2621,-82.031250
2622,-85.937500
2623,-85.937500
2624,-85.937500
2625,-85.937500
2626,-89.843750
2627,-89.843750
2628,-89.843750
2629,-89.843750
2630,-93.750000
2631,-93.750000
2632,-93.750000
2633,-93.750000
2634,-97.656250
2635,-97.656250
2636,-97.656250
2637,-97.656250
2638,-101.562500
2639,-101.562500
2640,-101.562500
2641,-101.562500
2642,-105.468750
2643,-105.468750
2644,-105.468750
2645,-105.468750
2646,-105.468750
2647,-109.375000
2648,-109.375000
2649,-109.375000
2650,-113.281250
2651,-113.281250
2652,-113.281250
2653,-113.281250
2654,-117.187500
2655,-117.187500
2656,-117.187500
2657,-117.187500
2658,-121.093750
2659,-121.093750
2660,-121.093750
2661,-121.093750
2662,-125.000000
2663,-125.000000
2664,-125.000000
2665,-125.000000
2666,-125.000000
2667,-128.906250
2668,-128.906250
2669,-128.906250
2670,-128.906250
2671,-132.812500
2672,-132.812500
2673,-132.812500
2674,-132.812500
2675,-136.718750
2676,-132.812500
2677,-136.718750
2678,-132.812500
2679,-136.718750
2680,-140.625000
2681,-140.625000
2682,-140.625000
2683,-140.625000
2684,-140.625000
2685,-144.531250
2686,-144.531250
2687,-144.531250
2688,-144.531250
2689,-144.531250
2690,-148.437500
2691,-148.437500
2692,-148.437500
2693,-148.437500
2694,-148.437500
2695,-148.437500
2696,-152.343750
2697,-152.343750
2698,-152.343750
2699,-152.343750
2700,-152.343750
2701,-156.250000
2702,-156.250000
2703,-156.250000
2704,-156.250000
2705,-156.250000
2706,-156.250000
2707,-160.156250
2708,-160.156250
2709,-160.156250
2710,-160.156250
2711,-160.156250
2712,-164.062500
2713,-164.062500
2714,-164.062500
2715,-164.062500
2716,-164.062500
2717,-164.062500
2718,-164.062500
2719,-167.968750
2720,-167.968750
2721,-167.968750
2722,-167.968750
2723,-167.968750
2724,-167.968750
2725,-167.968750
2726,-171.875000
2727,-167.968750
2728,-171.875000
2729,-171.875000
2730,-171.875000
2731,-171.875000
2732,-171.875000
2733,-171.875000
2734,-171.875000
2735,-175.781250
2736,-175.781250
2737,-175.781250
2738,-175.781250
2739,-175.781250
2740,-175.781250
2741,-175.781250
2742,-175.781250
2743,-175.781250
2744,-175.781250
2745,-179.687500
2746,-179.687500
2747,-179.687500
2748,-179.687500
2749,-179.687500
2750,-179.687500
2751,-179.687500
2752,-179.687500
2753,-179.687500
2754,-179.687500
2755,-183.593750
2756,-183.593750
2757,-183.593750
2758,-183.593750
2759,-183.593750
2760,-183.593750
2761,-183.593750
2762,-183.593750
2763,-183.593750
2764,-183.593750
2765,-183.593750
2766,-183.593750
2767,-183.593750
2768,-183.593750
2769,-183.593750
2770,-183.593750
2771,-183.593750
2772,-187.500000
2773,-187.500000
2774,-187.500000
2775,-187.500000
2776,-187.500000
2777,-187.500000
2778,-187.500000
2779,-187.500000
2780,-187.500000
2781,-187.500000
2782,-187.500000
2783,-187.500000
2784,-187.500000
2785,-187.500000
2786,-187.500000
2787,-187.500000
2788,-187.500000
2789,-187.500000
2790,-187.500000
2791,-187.500000
2792,-187.500000
2793,-187.500000
2794,-187.500000
2795,-187.500000
2796,-187.500000
2797,-187.500000
2798,-187.500000
2799,-187.500000
2800,-187.500000
2801,-187.500000
2802,-187.500000
2803,-187.500000
2804,-187.500000
2805,-187.500000
2806,-187.500000
2807,-187.500000
2808,-187.500000
2809,-187.500000
2810,-187.500000
2811,-187.500000
2812,-187.500000
2813,-187.500000
2814,-187.500000
2815,-187.500000
2816,-187.500000
2817,-187.500000
2818,-187.500000
2819,-187.500000
2820,-187.500000
2821,-187.500000
2822,-187.500000
2823,-183.593750
2824,-183.593750
2825,-183.593750
2826,-183.593750
2827,-183.593750
2828,-183.593750
2829,-183.593750
2830,-183.593750
2831,-183.593750
2832,-183.593750
2833,-183.593750
2834,-183.593750
2835,-183.593750
2836,-179.687500
2837,-179.687500
2838,-179.687500
2839,-179.687500
2840,-179.687500
2841,-179.687500
2842,-179.687500
2843,-179.687500
2844,-179.687500
2845,-179.687500
2846,-179.687500
2847,-179.687500
2848,-175.781250
2849,-175.781250
2850,-175.781250
2851,-175.781250
2852,-175.781250
2853,-175.781250
2854,-175.781250
2855,-175.781250
2856,-171.875000
2857,-171.875000
2858,-171.875000
2859,-171.875000
2860,-171.875000
2861,-171.875000
2862,-171.875000
2863,-167.968750
2864,-171.875000
2865,-167.968750
2866,-167.968750
2867,-167.968750
2868,-167.968750
2869,-167.968750
2870,-167.968750
2871,-164.062500
2872,-164.062500
2873,-164.062500
2874,-164.062500
2875,-164.062500
2876,-164.062500
2877,-164.062500
2878,-160.156250
2879,-160.156250
2880,-160.156250
2881,-160.156250
2882,-160.156250
2883,-156.250000
2884,-156.250000
2885,-156.250000
2886,-156.250000
2887,-156.250000
2888,-156.250000
2889,-152.343750
2890,-152.343750
2891,-152.343750
2892,-152.343750
2893,-152.343750
2894,-148.437500
2895,-148.437500
2896,-148.437500
2897,-148.437500
2898,-148.437500
2899,-148.437500
2900,-144.531250
2901,-144.531250
2902,-144.531250
2903,-144.531250
2904,-144.531250
2905,-144.531250
2906,-140.625000
2907,-140.625000
2908,-140.625000
2909,-140.625000
2910,-140.625000
2911,-136.718750
2912,-136.718750
2913,-136.718750
2914,-136.718750
2915,-132.812500
2916,-132.812500
2917,-132.812500
2918,-132.812500
2919,-132.812500
2920,-128.906250
2921,-128.906250
2922,-128.906250
2923,-128.906250
2924,-128.906250
2925,-125.000000
2926,-125.000000
2927,-125.000000
2928,-121.093750
2929,-125.000000
2930,-121.093750
2931,-121.093750
2932,-121.093750
2933,-117.187500
2934,-117.187500
2935,-117.187500
2936,-117.187500
2937,-113.281250
2938,-113.281250
2939,-113.281250
2940,-113.281250
2941,-113.281250
2942,-109.375000
2943,-109.375000
2944,-105.468750
2945,-105.468750
2946,-105.468750
2947,-105.468750
2948,-105.468750
2949,-101.562500
2950,-101.562500
2951,-101.562500
2952,-101.562500
2953,-101.562500
2954,-97.656250
2955,-97.656250
2956,-97.656250
2957,-97.656250
2958,-93.750000
2959,-93.750000
2960,-93.750000
2961,-89.843750
2962,-89.843750
2963,-89.843750
2964,-89.843750
2965,-89.843750
2966,-85.937500
2967,-85.937500
2968,-85.937500
2969,-82.031250
2970,-82.031250
2971,-82.031250
2972,-82.031250
2973,-78.125000
2974,-78.125000
2975,-74.218750
2976,-78.125000
2977,-78.125000
2978,-70.312500
2979,-74.218750
2980,-70.312500
2981,-70.312500
2982,-70.312500
2983,-66.406250
2984,-66.406250
2985,-66.406250
2986,-66.406250
2987,-66.406250
2988,-62.500000
2989,-62.500000
2990,-62.500000
2991,-58.593750
2992,-58.593750
2993,-58.593750
2994,-58.593750
2995,-54.687500
2996,-54.687500
2997,-54.687500
2998,-50.781250
2999,-50.781250
3000,-50.781250
3001,-46.875000
3002,-46.875000
3003,-46.875000
3004,-46.875000
3005,-42.968750
3006,-42.968750
3007,-42.968750
3008,-39.062500
3009,-35.156250
3010,-39.062500
3011,-39.062500
3012,-35.156250
3013,-35.156250
3014,-35.156250
3015,-31.250000
3016,-31.250000
3017,-31.250000
3018,-31.250000
3019,-27.343750
3020,-27.343750
3021,-27.343750
3022,-23.437500
3023,-23.437500
3024,-23.437500
3025,-19.531250
3026,-19.531250
3027,-19.531250
3028,-15.625000
3029,-19.531250
3030,-15.625000
3031,-15.625000
3032,-15.625000
3033,-11.718750
3034,-11.718750
3035,-11.718750
3036,-11.718750
3037,-7.812500
3038,-7.812500
3039,-7.812500
3040,-7.812500
3041,-3.906250
3042,-3.906250
3043,-3.906250
3044,0.000000
3045,0.000000
3046,0.000000
3047,0.000000
3048,3.906250
3049,3.906250
3050,3.906250
3051,3.906250
3052,7.812500
3053,7.812500
3054,7.812500
3055,11.718750
3056,11.718750
3057,11.718750
3058,11.718750
3059,15.625000
3060,15.625000
3061,15.625000
3062,15.625000
3063,19.531250
3064,19.531250
3065,19.531250
3066,19.531250
3067,23.437500
3068,23.437500
3069,23.437500
3070,27.343750
3071,27.343750
3072,27.343750
3073,27.343750
3074,31.250000
3075,31.250000
3076,31.250000
3077,31.250000
3078,35.156250
3079,39.062500
3080,35.156250
3081,35.156250
3082,35.156250
3083,39.062500
3084,39.062500
3085,39.062500
3086,42.968750
3087,42.968750
3088,42.968750
3089,42.968750
3090,46.875000
3091,46.875000
3092,46.875000
3093,50.781250
3094,50.781250
3095,50.781250
3096,50.781250
3097,50.781250
3098,54.687500
3099,54.687500
3100,54.687500
3101,54.687500
3102,58.593750
3103,58.593750
3104,58.593750
3105,58.593750
3106,58.593750
3107,62.500000
3108,62.500000
3109,62.500000
3110,62.500000
3111,66.406250
3112,66.406250
3113,66.406250
3114,70.312500
3115,70.312500
3116,70.312500
3117,70.312500
3118,70.312500
3119,74.218750
3120,74.218750
3121,74.218750
3122,74.218750
3123,74.218750
3124,74.218750
3125,78.125000
3126,78.125000
3127,78.125000
3128,78.125000
3129,82.031250
3130,82.031250
3131,82.031250
3132,82.031250
3133,82.031250
3134,82.031250
3135,85.937500
3136,85.937500
3137,85.937500
3138,85.937500
3139,89.843750
3140,89.843750
3141,89.843750
3142,89.843750
3143,89.843750
3144,93.750000
3145,93.750000
3146,93.750000
3147,93.750000
3148,93.750000
3149,97.656250
3150,97.656250
3151,97.656250
3152,97.656250
3153,97.656250
3154,97.656250
3155,101.562500
3156,101.562500
3157,101.562500
3158,101.562500
3159,101.562500
3160,101.562500
3161,105.468750
3162,105.468750
3163,105.468750
3164,105.468750
3165,105.468750
3166,105.468750
3167,109.375000
3168,109.375000
3169,109.375000
3170,109.375000
3171,109.375000
3172,109.375000
3173,113.281250
3174,113.281250
3175,113.281250
3176,113.281250
3177,113.281250
3178,113.281250
3179,113.281250
3180,113.281250
3181,117.187500
3182,117.187500
3183,117.187500
3184,117.187500
3185,117.187500
3186,117.187500
3187,117.187500
3188,121.093750
3189,121.093750
3190,121.093750
3191,121.093750
3192,121.093750
3193,121.093750
3194,125.000000
3195,125.000000
3196,125.000000
3197,125.000000
3198,125.000000
3199,125.000000
3200,125.000000
3201,125.000000
3202,125.000000
3203,125.000000
3204,125.000000
3205,128.906250
3206,128.906250
3207,128.906250
3208,128.906250
3209,128.906250
3210,128.906250
3211,128.906250
3212,128.906250
3213,132.812500
3214,128.906250
3215,132.812500
3216,132.812500
3217,132.812500
3218,132.812500
3219,132.812500
3220,132.812500
3221,132.812500
3222,132.812500
3223,132.812500
3224,132.812500
3225,136.718750
3226,136.718750
3227,136.718750
3228,136.718750
3229,136.718750
3230,136.718750
3231,136.718750
3232,136.718750
3233,136.718750
3234,136.718750
3235,136.718750
3236,136.718750
3237,140.625000
3238,140.625000
3239,140.625000
3240,140.625000
3241,140.625000
3242,140.625000
3243,140.625000
3244,140.625000
3245,140.625000
3246,140.625000
3247,140.625000
3248,140.625000
3249,140.625000
3250,140.625000
3251,144.531250
3252,140.625000
3253,144.531250
3254,144.531250
3255,144.531250
3256,144.531250
3257,144.531250
3258,144.531250
3259,144.531250
3260,144.531250
3261,144.531250
3262,144.531250
3263,144.531250
3264,144.531250
3265,144.531250
3266,144.531250
3267,144.531250
3268,144.531250
3269,144.531250
3270,144.531250
3271,144.531250
3272,144.531250
3273,144.531250
3274,144.531250
3275,144.531250
3276,144.531250
3277,148.437500
3278,144.531250
3279,144.531250
3280,144.531250
3281,148.437500
3282,144.531250
3283,144.531250
3284,144.531250
3285,148.437500
3286,144.531250
3287,144.531250
3288,144.531250
3289,148.437500
3290,148.437500
3291,148.437500
3292,144.531250
3293,148.437500
3294,144.531250
3295,148.437500
3296,144.531250
3297,148.437500
3298,144.531250
3299,144.531250
3300,144.531250
3301,144.531250
3302,144.531250
3303,144.531250
3304,144.531250
3305,144.531250
3306,144.531250
3307,144.531250
3308,144.531250
3309,148.437500
3310,144.531250
3311,148.437500
3312,144.531250
3313,144.531250
3314,144.531250
3315,144.531250
3316,144.531250
3317,144.531250
3318,144.531250
3319,144.531250
3320,144.531250
3321,144.531250
3322,144.531250
3323,144.531250
3324,144.531250
3325,144.531250
3326,144.531250
3327,144.531250
3328,140.625000
3329,140.625000
3330,140.625000
3331,140.625000
3332,140.625000
3333,140.625000
3334,140.625000
3335,140.625000
3336,140.625000
3337,140.625000
3338,140.625000
3339,140.625000
3340,140.625000
3341,140.625000
3342,140.625000
3343,140.625000
3344,140.625000
3345,140.625000
3346,136.718750
3347,136.718750
3348,136.718750
3349,136.718750
3350,136.718750
3351,136.718750
3352,136.718750
3353,136.718750
3354,136.718750
3355,136.718750
3356,136.718750
3357,136.718750
3358,132.812500
3359,132.812500
3360,132.812500
3361,132.812500
3362,132.812500
3363,132.812500
3364,132.812500
3365,132.812500
3366,125.000000
3367,128.906250
3368,128.906250
3369,132.812500
3370,128.906250
3371,128.906250
3372,128.906250
3373,128.906250
3374,128.906250
3375,128.906250
3376,128.906250
3377,128.906250
3378,128.906250
3379,125.000000
3380,125.000000
3381,125.000000
3382,125.000000
3383,125.000000
3384,125.000000
3385,125.000000
3386,125.000000
3387,121.093750
3388,121.093750
3389,121.093750
3390,121.093750
3391,121.093750
3392,121.093750
3393,121.093750
3394,121.093750
3395,121.093750
3396,117.187500
3397,117.187500
3398,117.187500
3399,117.187500
3400,117.187500
3401,117.187500
3402,113.281250
3403,113.281250
3404,113.281250
3405,113.281250
3406,113.281250
3407,113.281250
3408,109.375000
3409,109.375000
3410,109.375000
3411,109.375000
3412,109.375000
3413,109.375000
3414,109.375000
3415,109.375000
3416,105.468750
3417,105.468750
3418,105.468750
3419,105.468750
3420,105.468750
3421,105.468750
3422,101.562500
3423,101.562500
3424,101.562500
3425,101.562500
3426,101.562500
3427,101.562500
3428,97.656250
3429,97.656250
3430,97.656250
3431,97.656250
3432,97.656250
3433,93.750000
3434,93.750000
3435,93.750000
3436,93.750000
3437,93.750000
3438,89.843750
3439,89.843750
3440,89.843750
3441,89.843750
3442,89.843750
3443,85.937500
3444,85.937500
3445,85.937500
3446,85.937500
3447,85.937500
3448,82.031250
3449,82.031250
3450,82.031250
3451,82.031250
3452,78.125000
3453,78.125000
3454,78.125000
3455,78.125000
3456,74.218750
3457,78.125000
3458,74.218750
3459,74.218750
3460,74.218750
3461,74.218750
3462,70.312500
3463,70.312500
3464,70.312500
3465,70.312500
3466,66.406250
3467,70.312500
3468,66.406250
3469,66.406250
3470,66.406250
3471,62.500000
3472,62.500000
3473,62.500000
3474,62.500000
3475,62.500000
3476,58.593750
3477,58.593750
3478,58.593750
3479,58.593750
3480,54.687500
3481,54.687500
3482,54.687500
3483,54.687500
3484,50.781250
3485,50.781250
3486,50.781250
3487,46.875000
3488,46.875000
3489,46.875000
3490,46.875000
3491,46.875000
3492,42.968750
3493,42.968750
3494,42.968750
3495,42.968750
3496,39.062500
3497,39.062500
3498,39.062500
3499,39.062500
3500,35.156250
3501,35.156250
3502,35.156250
3503,35.156250
3504,31.250000
3505,31.250000
3506,31.250000
3507,31.250000
3508,27.343750
3509,27.343750
3510,27.343750
3511,23.437500
3512,23.437500
3513,23.437500
3514,23.437500
3515,19.531250
3516,19.531250
3517,19.531250
3518,19.531250
3519,15.625000
3520,15.625000
3521,15.625000
3522,15.625000
3523,11.718750
3524,11.718750
3525,11.718750
3526,11.718750
3527,7.812500
3528,7.812500
3529,7.812500
3530,3.906250
3531,3.906250
3532,3.906250
3533,0.000000
3534,0.000000
3535,0.000000
3536,0.000000
3537,0.000000
3538,-3.906250
3539,-3.906250
3540,-3.906250
3541,-7.812500
3542,-7.812500
3543,-7.812500
3544,-11.718750
3545,-11.718750
3546,-11.718750
3547,-11.718750
3548,-15.625000
3549,-15.625000
3550,-15.625000
3551,-15.625000
3552,-19.531250
3553,-19.531250
3554,-19.531250
3555,-23.437500
3556,-23.437500
3557,-23.437500
3558,-23.437500
3559,-27.343750
3560,-27.343750
3561,-27.343750
3562,-31.250000
3563,-31.250000
3564,-31.250000
3565,-31.250000
3566,-35.156250
3567,-35.156250
3568,-35.156250
3569,-35.156250
3570,-39.062500
3571,-39.062500
3572,-39.062500
3573,-42.968750
3574,-42.968750
3575,-42.968750
3576,-46.875000
3577,-46.875000
3578,-46.875000
3579,-46.875000
3580,-46.875000
3581,-50.781250
3582,-50.781250
3583,-54.687500
3584,-54.687500
3585,-54.687500
3586,-54.687500
3587,-58.593750
3588,-58.593750
3589,-58.593750
3590,-58.593750
3591,-62.500000
3592,-62.500000
3593,-62.500000
3594,-66.406250
3595,-66.406250
3596,-66.406250
3597,-66.406250
3598,-70.312500
3599,-70.312500
3600,-70.312500
3601,-74.218750
3602,-74.218750
3603,-74.218750
3604,-74.218750
3605,-78.125000
3606,-78.125000
3607,-78.125000
3608,-78.125000
3609,-82.031250
3610,-82.031250
3611,-82.031250
3612,-85.937500
3613,-85.937500
3614,-85.937500
3615,-85.937500
3616,-89.843750
3617,-89.843750
3618,-89.843750
3619,-89.843750
3620,-93.750000
3621,-93.750000
3622,-93.750000
3623,-93.750000
3624,-97.656250
3625,-97.656250
3626,-97.656250
3627,-97.656250
3628,-97.656250
3629,-101.562500
3630,-101.562500
3631,-101.562500
3632,-105.468750
3633,-105.468750
3634,-105.468750
3635,-109.375000
3636,-109.375000
3637,-109.375000
3638,-109.375000
3639,-109.375000
3640,-113.281250
3641,-113.281250
3642,-113.281250
3643,-113.281250
3644,-113.281250
3645,-117.187500
3646,-117.187500
3647,-117.187500
3648,-117.187500
3649,-121.093750
3650,-121.093750
3651,-121.093750
3652,-121.093750
3653,-125.000000
3654,-125.000000
3655,-125.000000
3656,-125.000000
3657,-125.000000
3658,-128.906250
3659,-128.906250
3660,-128.906250
3661,-128.906250
3662,-132.812500
3663,-132.812500
3664,-132.812500
3665,-132.812500
3666,-132.812500
3667,-136.718750
3668,-136.718750
3669,-136.718750
3670,-136.718750
3671,-140.625000
3672,-140.625000
3673,-140.625000
3674,-140.625000
3675,-140.625000
3676,-140.625000
3677,-144.531250
3678,-144.531250
3679,-144.531250
3680,-144.531250
3681,-148.437500
3682,-148.437500
3683,-148.437500
3684,-148.437500
3685,-148.437500
3686,-148.437500
3687,-152.343750
3688,-152.343750
3689,-152.343750
3690,-152.343750
3691,-152.343750
3692,-156.250000
3693,-156.250000
3694,-156.250000
3695,-156.250000
3696,-156.250000
3697,-156.250000
3698,-156.250000
3699,-156.250000
3700,-160.156250
3701,-160.156250
3702,-160.156250
3703,-160.156250
3704,-164.062500
3705,-164.062500
3706,-164.062500
3707,-164.062500
3708,-164.062500
3709,-164.062500
3710,-164.062500
3711,-164.062500
3712,-167.968750
3713,-167.968750
3714,-167.968750
3715,-167.968750
3716,-167.968750
3717,-167.968750
3718,-171.875000
3719,-171.875000
3720,-171.875000
3721,-171.875000
3722,-171.875000
3723,-171.875000
3724,-171.875000
3725,-175.781250
3726,-171.875000
3727,-171.875000
3728,-175.781250
3729,-175.781250
3730,-175.781250
3731,-175.781250
3732,-175.781250
3733,-175.781250
3734,-179.687500
3735,-175.781250
3736,-179.687500
3737,-175.781250
3738,-179.687500
3739,-179.687500
3740,-179.687500
3741,-179.687500
3742,-179.687500
3743,-179.687500
3744,-179.687500
3745,-179.687500
3746,-179.687500
3747,-179.687500
3748,-183.593750
3749,-179.687500
3750,-183.593750
3751,-183.593750
3752,-183.593750
3753,-183.593750
3754,-183.593750
3755,-183.593750
3756,-183.593750
3757,-183.593750
3758,-183.593750
3759,-183.593750
3760,-183.593750
3761,-183.593750
3762,-183.593750
3763,-183.593750
3764,-183.593750
3765,-183.593750
3766,-183.593750
3767,-183.593750
3768,-187.500000
3769,-187.500000
3770,-187.500000
3771,-183.593750
3772,-187.500000
3773,-187.500000
3774,-187.500000
3775,-187.500000
3776,-187.500000
3777,-187.500000
3778,-187.500000
3779,-187.500000
3780,-187.500000
3781,-187.500000
3782,-187.500000
3783,-187.500000
3784,-187.500000
3785,-187.500000
3786,-187.500000
3787,-187.500000
3788,-187.500000
3789,-187.500000
3790,-187.500000
3791,-187.500000
3792,-187.500000
3793,-187.500000
3794,-187.500000
3795,-187.500000
3796,-187.500000
3797,-187.500000
3798,-187.500000
3799,-187.500000
3800,-187.500000
3801,-183.593750
3802,-187.500000
3803,-187.500000
3804,-183.593750
3805,-183.593750
3806,-183.593750
3807,-183.593750
3808,-183.593750
3809,-183.593750
3810,-183.593750
3811,-183.593750
3812,-183.593750
3813,-183.593750
3814,-183.593750
3815,-183.593750
3816,-183.593750
3817,-183.593750
3818,-183.593750
3819,-183.593750
3820,-183.593750
3821,-179.687500
3822,-179.687500
3823,-179.687500
3824,-179.687500
3825,-179.687500
3826,-179.687500
3827,-179.687500
3828,-179.687500
3829,-179.687500
3830,-179.687500
3831,-179.687500
3832,-179.687500
3833,-179.687500
3834,-179.687500
3835,-175.781250
3836,-175.781250
3837,-175.781250
3838,-175.781250
3839,-175.781250
3840,-175.781250
3841,-175.781250
3842,-171.875000
3843,-171.875000
3844,-175.781250
3845,-171.875000
3846,-171.875000
3847,-171.875000
3848,-171.875000
3849,-171.875000
3850,-171.875000
3851,-171.875000
3852,-171.875000
3853,-167.968750
3854,-167.968750
3855,-167.968750
3856,-167.968750
3857,-167.968750
3858,-167.968750
3859,-164.062500
3860,-164.062500
3861,-164.062500
3862,-164.062500
3863,-164.062500
3864,-164.062500
3865,-160.156250
3866,-164.062500
3867,-160.156250
3868,-160.156250
3869,-160.156250
3870,-160.156250
3871,-160.156250
3872,-160.156250
3873,-156.250000
3874,-156.250000
3875,-156.250000
3876,-156.250000
3877,-156.250000
3878,-156.250000
3879,-152.343750
3880,-152.343750
3881,-152.343750
3882,-152.343750
3883,-152.343750
3884,-148.437500
3885,-148.437500
3886,-148.437500
3887,-148.437500
3888,-148.437500
3889,-148.437500
3890,-144.531250
3891,-144.531250
3892,-144.531250
3893,-144.531250
3894,-140.625000
3895,-140.625000
3896,-140.625000
3897,-140.625000
3898,-140.625000
3899,-140.625000
3900,-136.718750
3901,-136.718750
3902,-136.718750
3903,-136.718750
3904,-136.718750
3905,-132.812500
3906,-132.812500
3907,-132.812500
3908,-132.812500
3909,-132.812500
3910,-128.906250
3911,-128.906250
3912,-128.906250
3913,-125.000000
3914,-125.000000
3915,-125.000000
3916,-125.000000
3917,-121.093750
3918,-121.093750
3919,-121.093750
3920,-121.093750
3921,-121.093750
3922,-117.187500
3923,-117.187500
3924,-117.187500
3925,-117.187500
3926,-117.187500
3927,-113.281250
3928,-113.281250
3929,-113.281250
3930,-113.281250
3931,-109.375000
3932,-109.375000
3933,-109.375000
3934,-109.375000
3935,-105.468750
3936,-105.468750
3937,-105.468750
3938,-101.562500
3939,-101.562500
3940,-101.562500
3941,-101.562500
3942,-97.656250
3943,-97.656250
3944,-97.656250
3945,-97.656250
3946,-97.656250
3947,-93.750000
3948,-93.750000
3949,-93.750000
3950,-93.750000
3951,-89.843750
3952,-89.843750
3953,-89.843750
3954,-85.937500
3955,-85.937500
3956,-85.937500
3957,-85.937500
3958,-82.031250
3959,-82.031250
3960,-82.031250
3961,-82.031250
3962,-78.125000
3963,-78.125000
3964,-78.125000
3965,-74.218750
3966,-74.218750
3967,-74.218750
3968,-74.218750
3969,-74.218750
3970,-70.312500
3971,-70.312500
3972,-70.312500
3973,-66.406250
3974,-66.406250
3975,-66.406250
3976,-66.406250
3977,-62.500000
3978,-62.500000
3979,-62.500000
3980,-58.593750
3981,-58.593750
3982,-58.593750
3983,-58.593750
3984,-54.687500
3985,-54.687500
3986,-54.687500
3987,-54.687500
3988,-50.781250
3989,-50.781250
3990,-50.781250
3991,-46.875000
3992,-46.875000
3993,-46.875000
3994,-42.968750
3995,-42.968750
3996,-42.968750
3997,-42.968750
3998,-39.062500
3999,-39.062500
4000,-39.062500
4001,-35.156250
4002,-35.156250
4003,-35.156250
4004,-35.156250
4005,-35.156250
4006,-31.250000
4007,-31.250000
4008,-27.343750
4009,-27.343750
4010,-27.343750
4011,-27.343750
4012,-23.437500
4013,-23.437500
4014,-23.437500
4015,-23.437500
4016,-19.531250
4017,-19.531250
4018,-19.531250
4019,-15.625000
4020,-15.625000
4021,-15.625000
4022,-15.625000
4023,-11.718750
4024,-11.718750
4025,-11.718750
4026,-7.812500
4027,-7.812500
4028,-7.812500
4029,-7.812500
4030,-3.906250
4031,-3.906250
4032,-3.906250
4033,-3.906250
4034,0.000000
4035,0.000000
4036,0.000000
4037,3.906250
4038,3.906250
4039,3.906250
4040,3.906250
4041,7.812500
4042,7.812500
4043,7.812500
4044,7.812500
4045,11.718750
4046,11.718750
4047,11.718750
4048,15.625000
4049,15.625000
4050,15.625000
4051,15.625000
4052,15.625000
4053,19.531250
4054,19.531250
4055,19.531250
4056,23.437500
4057,23.437500
4058,23.437500
4059,23.437500
4060,27.343750
4061,27.343750
4062,27.343750
4063,31.250000
4064,31.250000
4065,31.250000
4066,31.250000
4067,35.156250
4068,35.156250
4069,35.156250
4070,35.156250
4071,39.062500
4072,39.062500
4073,39.062500
4074,39.062500
4075,42.968750
4076,42.968750
4077,42.968750
4078,42.968750
4079,46.875000
4080,46.875000
4081,46.875000
4082,46.875000
4083,50.781250
4084,50.781250
4085,50.781250
4086,50.781250
4087,50.781250
4088,54.687500
4089,54.687500
4090,54.687500
4091,54.687500
4092,58.593750
4093,58.593750
4094,58.593750
4095,62.500000
4096,62.500000
4097,62.500000
4098,62.500000
4099,62.500000
4100,62.500000
4101,66.406250
4102,66.406250
4103,66.406250
4104,70.312500
4105,70.312500
4106,70.312500
4107,70.312500
4108,70.312500
4109,70.312500
4110,74.218750
4111,74.218750
4112,74.218750
4113,74.218750
4114,78.125000
4115,78.125000
4116,78.125000
4117,78.125000
4118,78.125000
4119,82.031250
4120,82.031250
4121,82.031250
4122,82.031250
4123,82.031250
4124,85.937500
4125,85.937500
4126,85.937500
4127,85.937500
4128,85.937500
4129,85.937500
4130,89.843750
4131,89.843750
4132,89.843750
4133,89.843750
4134,89.843750
4135,93.750000
4136,93.750000
4137,93.750000
4138,93.750000
4139,93.750000
4140,97.656250
4141,97.656250
4142,97.656250
4143,97.656250
4144,97.656250
4145,101.562500
4146,101.562500
4147,101.562500
4148,101.562500
4149,101.562500
4150,101.562500
4151,101.562500
4152,105.468750
4153,105.468750
4154,105.468750
4155,105.468750
4156,105.468750
4157,109.375000
4158,109.375000
4159,109.375000
4160,109.375000
4161,109.375000
4162,109.375000
4163,109.375000
4164,109.375000
4165,113.281250
4166,113.281250
4167,113.281250
4168,113.281250
4169,113.281250
4170,113.281250
4171,113.281250
4172,117.187500
4173,117.187500
4174,117.187500
4175,117.187500
4176,117.187500
4177,117.187500
4178,117.187500
4179,121.093750
4180,121.093750
4181,121.093750
4182,121.093750
4183,121.093750
4184,121.093750
4185,121.093750
4186,125.000000
4187,125.000000
4188,125.000000
4189,125.000000
4190,125.000000
4191,125.000000
4192,125.000000
4193,128.906250
4194,125.000000
4195,128.906250
4196,128.906250
4197,128.906250
4198,128.906250
4199,128.906250
4200,128.906250
4201,128.906250
4202,128.906250
4203,132.812500
4204,132.812500
4205,132.812500
4206,132.812500
4207,132.812500
4208,132.812500
4209,132.812500
4210,132.812500
4211,132.812500
4212,132.812500
4213,136.718750
4214,132.812500
4215,136.718750
4216,132.812500
4217,132.812500
4218,136.718750
4219,136.718750
4220,136.718750
4221,136.718750
4222,136.718750
4223,136.718750
4224,136.718750
4225,136.718750
4226,136.718750
4227,136.718750
4228,136.718750
4229,136.718750
4230,140.625000
4231,140.625000
4232,140.625000
4233,140.625000
4234,140.625000
4235,140.625000
4236,140.625000
4237,140.625000
4238,140.625000
4239,140.625000
4240,140.625000
4241,140.625000
4242,140.625000
4243,140.625000
4244,140.625000
4245,144.531250
4246,140.625000
4247,140.625000
4248,140.625000
4249,140.625000
4250,144.531250
4251,144.531250
4252,144.531250
4253,144.531250
4254,144.531250
4255,144.531250
4256,140.625000
4257,144.531250
4258,144.531250
4259,144.531250
4260,144.531250
4261,144.531250
4262,144.531250
4263,144.531250
4264,144.531250
4265,144.531250
4266,144.531250
4267,144.531250
4268,144.531250
4269,144.531250
4270,144.531250
4271,144.531250
4272,144.531250
4273,144.531250
4274,144.531250
4275,144.531250
4276,144.531250
4277,144.531250
4278,144.531250
4279,144.531250
4280,144.531250
4281,144.531250
4282,144.531250
4283,144.531250
4284,144.531250
4285,144.531250
4286,144.531250
4287,144.531250
4288,144.531250
4289,144.531250
4290,144.531250
4291,144.531250
4292,144.531250
4293,144.531250
4294,144.531250
4295,144.531250
4296,144.531250
4297,144.531250
4298,144.531250
4299,144.531250
4300,144.531250
4301,144.531250
4302,144.531250
4303,144.531250
4304,144.531250
4305,144.531250
4306,144.531250
4307,144.531250
4308,144.531250
4309,144.531250
4310,144.531250
4311,144.531250
4312,144.531250
4313,144.531250
4314,144.531250
4315,140.625000
4316,140.625000
4317,140.625000
4318,140.625000
4319,144.531250
4320,140.625000
4321,140.625000
4322,140.625000
4323,140.625000
4324,140.625000
4325,140.625000
4326,140.625000
4327,140.625000
4328,140.625000
4329,140.625000
4330,140.625000
4331,140.625000
4332,140.625000
4333,136.718750
4334,136.718750
4335,136.718750
4336,136.718750
4337,136.718750
4338,136.718750
4339,136.718750
4340,136.718750
4341,136.718750
4342,136.718750
4343,136.718750
4344,136.718750
4345,136.718750
4346,132.812500
4347,132.812500
4348,132.812500
4349,132.812500
4350,132.812500
4351,132.812500
4352,132.812500
4353,132.812500
4354,132.812500
4355,132.812500
4356,132.812500
4357,128.906250
4358,128.906250
4359,128.906250
4360,128.906250
4361,128.906250
4362,128.906250
4363,128.906250
4364,125.000000
4365,128.906250
4366,125.000000
4367,125.000000
4368,125.000000
4369,125.000000
4370,125.000000
4371,125.000000
4372,121.093750
4373,125.000000
4374,121.093750
4375,125.000000
4376,121.093750
4377,121.093750
4378,121.093750
4379,121.093750
4380,121.093750
4381,121.093750
4382,121.093750
4383,117.187500
4384,117.187500
4385,117.187500
4386,117.187500
4387,117.187500
4388,117.187500
4389,113.281250
4390,113.281250
4391,113.281250
4392,113.281250
4393,113.281250
4394,113.281250
4395,113.281250
4396,113.281250
4397,109.375000
4398,109.375000
4399,109.375000
4400,109.375000
4401,109.375000
4402,105.468750
4403,105.468750
4404,105.468750
4405,105.468750
4406,105.468750
4407,105.468750
4408,101.562500
4409,105.468750
4410,101.562500
4411,101.562500
4412,101.562500
4413,101.562500
4414,97.656250
4415,97.656250
4416,97.656250
4417,97.656250
4418,97.656250
4419,97.656250
4420,93.750000
4421,93.750000
4422,93.750000
4423,93.750000
4424,93.750000
4425,93.750000
4426,89.843750
4427,89.843750
4428,89.843750
4429,89.843750
4430,89.843750
4431,89.843750
4432,85.937500
4433,85.937500
4434,85.937500
4435,85.937500
4436,85.937500
4437,82.031250
4438,82.031250
4439,82.031250
4440,82.031250
4441,82.031250
4442,78.125000
4443,78.125000
4444,78.125000
4445,78.125000
4446,74.218750
4447,74.218750
4448,74.218750
4449,74.218750
4450,74.218750
4451,70.312500
4452,70.312500
4453,70.312500
4454,66.406250
4455,70.312500
4456,66.406250
4457,66.406250
4458,66.406250
4459,66.406250
4460,62.500000
4461,62.500000
4462,62.500000
4463,62.500000
4464,58.593750
4465,58.593750
4466,58.593750
4467,58.593750
4468,54.687500
4469,54.687500
4470,54.687500
4471,54.687500
4472,54.687500
4473,54.687500
4474,50.781250
4475,50.781250
4476,46.875000
4477,46.875000
4478,46.875000
4479,46.875000
4480,46.875000
4481,42.968750
4482,42.968750
4483,42.968750
4484,42.968750
4485,39.062500
4486,39.062500
4487,39.062500
4488,39.062500
4489,35.156250
4490,35.156250
4491,35.156250
4492,35.156250
4493,31.250000
4494,31.250000
4495,31.250000
4496,27.343750
4497,27.343750
4498,27.343750
4499,27.343750
4500,23.437500
4501,23.437500
4502,23.437500
4503,23.437500
4504,19.531250
4505,19.531250
4506,19.531250
4507,15.625000
4508,15.625000
4509,15.625000
4510,15.625000
4511,15.625000
4512,11.718750
4513,11.718750
4514,11.718750
4515,7.812500
4516,7.812500
4517,7.812500
4518,7.812500
4519,3.906250
4520,3.906250
4521,3.906250
4522,3.906250
4523,0.000000
4524,-3.906250
4525,0.000000
4526,-3.906250
4527,-7.812500
4528,-3.906250
4529,-7.812500
4530,-7.812500
4531,-3.906250
4532,-7.812500
4533,-11.718750
4534,-7.812500
4535,-11.718750
4536,-15.625000
4537,-11.718750
4538,-15.625000
4539,-15.625000
4540,-19.531250
4541,-19.531250
4542,-19.531250
4543,-19.531250
4544,-23.437500
4545,-23.437500
4546,-23.437500
4547,-23.437500
4548,-27.343750
4549,-27.343750
4550,-27.343750
4551,-31.250000
4552,-31.250000
4553,-31.250000
4554,-31.250000
4555,-35.156250
4556,-39.062500
4557,-35.156250
4558,-39.062500
4559,-39.062500
4560,-39.062500
4561,-39.062500
4562,-42.968750
4563,-42.968750
4564,-42.968750
4565,-42.968750
4566,-46.875000
4567,-46.875000
4568,-46.875000
4569,-50.781250
4570,-50.781250
4571,-50.781250
4572,-50.781250
4573,-54.687500
4574,-54.687500
4575,-54.687500
4576,-54.687500
4577,-58.593750
4578,-58.593750
4579,-62.500000
4580,-62.500000
4581,-62.500000
4582,-62.500000
4583,-66.406250
4584,-66.406250
4585,-66.406250
4586,-66.406250
4587,-70.312500
4588,-70.312500
4589,-70.312500
4590,-70.312500
4591,-74.218750
4592,-74.218750
4593,-74.218750
4594,-74.218750
4595,-78.125000
4596,-78.125000
4597,-78.125000
4598,-82.031250
4599,-82.031250
4600,-82.031250
4601,-85.937500
4602,-85.937500
4603,-85.937500
4604,-85.937500
4605,-85.937500
4606,-89.843750
4607,-89.843750
4608,-89.843750
4609,-93.750000
4610,-93.750000
4611,-93.750000
4612,-93.750000
4613,-93.750000
4614,-97.656250
4615,-97.656250
4616,-97.656250
4617,-101.562500
4618,-101.562500
4619,-101.562500
4620,-101.562500
4621,-105.468750
4622,-105.468750
4623,-105.468750
4624,-109.375000
4625,-109.375000
4626,-109.375000
4627,-109.375000
4628,-109.375000
4629,-109.375000
4630,-113.281250
4631,-113.281250
4632,-113.281250
4633,-117.187500
4634,-117.187500
4635,-117.187500
4636,-117.187500
4637,-121.093750
4638,-121.093750
4639,-121.093750
4640,-121.093750
4641,-121.093750
4642,-125.000000
4643,-125.000000
4644,-125.000000
4645,-125.000000
4646,-125.000000
4647,-128.906250
4648,-128.906250
4649,-128.906250
4650,-132.812500
4651,-132.812500
4652,-132.812500
4653,-132.812500
4654,-132.812500
4655,-132.812500
4656,-136.718750
4657,-136.718750
4658,-136.718750
4659,-136.718750
4660,-140.625000
4661,-140.625000
4662,-140.625000
4663,-140.625000
4664,-144.531250
4665,-144.531250
4666,-144.531250
4667,-144.531250
4668,-144.531250
4669,-144.531250
4670,-148.437500
4671,-148.437500
4672,-148.437500
4673,-148.437500
4674,-148.437500
4675,-152.343750
4676,-152.343750
4677,-152.343750
4678,-152.343750
4679,-152.343750
4680,-152.343750
4681,-152.343750
4682,-156.250000
4683,-156.250000
4684,-156.250000
4685,-156.250000
4686,-156.250000
4687,-156.250000
4688,-160.156250
4689,-160.156250
4690,-160.156250
4691,-160.156250
4692,-160.156250
4693,-160.156250
4694,-164.062500
4695,-164.062500
4696,-164.062500
4697,-164.062500
4698,-164.062500
4699,-164.062500
4700,-164.062500
4701,-167.968750
4702,-167.968750
4703,-167.968750
4704,-167.968750
4705,-167.968750
4706,-167.968750
4707,-167.968750
4708,-171.875000
4709,-171.875000
4710,-171.875000
4711,-171.875000
4712,-171.875000
4713,-171.875000
4714,-171.875000
4715,-171.875000
4716,-171.875000
4717,-171.875000
4718,-175.781250
4719,-175.781250
4720,-175.781250
4721,-175.781250
4722,-175.781250
4723,-175.781250
4724,-175.781250
4725,-179.687500
4726,-179.687500
4727,-179.687500
4728,-179.687500
4729,-179.687500
4730,-179.687500
4731,-179.687500
4732,-179.687500
4733,-179.687500
4734,-179.687500
4735,-179.687500
4736,-179.687500
4737,-179.687500
4738,-183.593750
4739,-183.593750
4740,-183.593750
4741,-183.593750
4742,-183.593750
4743,-183.593750
4744,-183.593750
4745,-183.593750
4746,-183.593750
4747,-183.593750
4748,-183.593750
4749,-183.593750
4750,-183.593750
4751,-183.593750
4752,-183.593750
4753,-187.500000
4754,-183.593750
4755,-183.593750
4756,-183.593750
4757,-187.500000
4758,-187.500000
4759,-187.500000
4760,-187.500000
4761,-187.500000
4762,-187.500000
4763,-187.500000
4764,-187.500000
4765,-187.500000
4766,-187.500000
4767,-187.500000
4768,-187.500000
4769,-187.500000
4770,-187.500000
4771,-187.500000
4772,-187.500000
4773,-187.500000
4774,-187.500000
4775,-187.500000
4776,-187.500000
4777,-187.500000
4778,-187.500000
4779,-187.500000
4780,-187.500000
4781,-187.500000
4782,-187.500000
4783,-187.500000
4784,-187.500000
4785,-187.500000
4786,-187.500000
4787,-187.500000
4788,-187.500000
4789,-183.593750
4790,-183.593750
4791,-183.593750
4792,-187.500000
4793,-187.500000
4794,-187.500000
4795,-187.500000
4796,-187.500000
4797,-183.593750
4798,-183.593750
4799,-183.593750
4800,-183.593750
4801,-183.593750
4802,-183.593750
4803,-183.593750
4804,-183.593750
4805,-183.593750
4806,-183.593750
4807,-183.593750
4808,-183.593750
4809,-183.593750
4810,-183.593750
4811,-179.687500
4812,-179.687500
4813,-179.687500
4814,-179.687500
4815,-179.687500
4816,-179.687500
4817,-179.687500
4818,-179.687500
4819,-179.687500
4820,-179.687500
4821,-179.687500
4822,-175.781250
4823,-175.781250
4824,-175.781250
4825,-175.781250
4826,-175.781250
4827,-175.781250
4828,-175.781250
4829,-175.781250
4830,-175.781250
4831,-171.875000
4832,-171.875000
4833,-171.875000
4834,-171.875000
4835,-171.875000
4836,-171.875000
4837,-171.875000
4838,-171.875000
4839,-171.875000
4840,-171.875000
4841,-167.968750
4842,-167.968750
4843,-167.968750
4844,-167.968750
4845,-167.968750
4846,-167.968750
4847,-164.062500
4848,-164.062500
4849,-164.062500
4850,-164.062500
4851,-164.062500
4852,-164.062500
4853,-164.062500
4854,-160.156250
4855,-160.156250
4856,-160.156250
4857,-160.156250
4858,-160.156250
4859,-160.156250
4860,-160.156250
4861,-160.156250
4862,-156.250000
4863,-156.250000
4864,-156.250000
4865,-156.250000
4866,-156.250000
4867,-152.343750
4868,-152.343750
4869,-152.343750
4870,-152.343750
4871,-152.343750
4872,-152.343750
4873,-148.437500
4874,-148.437500
4875,-148.437500
4876,-148.437500
4877,-148.437500
4878,-144.531250
4879,-144.531250
4880,-144.531250
4881,-144.531250
4882,-144.531250
4883,-140.625000
4884,-140.625000
4885,-140.625000
4886,-140.625000
4887,-140.625000
4888,-140.625000
4889,-136.718750
4890,-136.718750
4891,-136.718750
4892,-136.718750
4893,-136.718750
4894,-132.812500
4895,-132.812500
4896,-132.812500
4897,-132.812500
4898,-132.812500
4899,-128.906250
4900,-128.906250
4901,-128.906250
4902,-128.906250
4903,-125.000000
4904,-125.000000
4905,-125.000000
4906,-125.000000
4907,-121.093750
4908,-121.093750
4909,-121.093750
4910,-121.093750
4911,-121.093750
4912,-117.187500
4913,-117.187500
4914,-117.187500
4915,-113.281250
4916,-113.281250
4917,-113.281250
4918,-113.281250
4919,-109.375000
4920,-109.375000
4921,-109.375000
4922,-109.375000
4923,-109.375000
4924,-109.375000
4925,-105.468750
4926,-105.468750
4927,-105.468750
4928,-101.562500
4929,-101.562500
4930,-101.562500
4931,-97.656250
4932,-97.656250
4933,-97.656250
4934,-97.656250
4935,-97.656250
4936,-93.750000
4937,-93.750000
4938,-93.750000
4939,-89.843750
4940,-89.843750
4941,-89.843750
4942,-89.843750
4943,-85.937500
4944,-85.937500
4945,-85.937500
4946,-82.031250
4947,-82.031250
4948,-82.031250
4949,-85.937500
4950,-78.125000
4951,-78.125000
4952,-78.125000
4953,-78.125000
4954,-74.218750
4955,-74.218750
4956,-74.218750
4957,-70.312500
4958,-70.312500
4959,-70.312500
4960,-70.312500
4961,-66.406250
4962,-66.406250
4963,-66.406250
4964,-66.406250
4965,-62.500000
4966,-62.500000
4967,-62.500000
4968,-58.593750
4969,-58.593750
4970,-58.593750
4971,-58.593750
4972,-54.687500
4973,-54.687500
4974,-54.687500
4975,-54.687500
4976,-50.781250
4977,-50.781250
4978,-50.781250
4979,-46.875000
4980,-46.875000
4981,-46.875000
4982,-46.875000
4983,-42.968750
4984,-42.968750
4985,-42.968750
4986,-42.968750
4987,-39.062500
4988,-39.062500
4989,-39.062500
4990,-35.156250
4991,-35.156250
4992,-35.156250
4993,-31.250000
4994,-31.250000
4995,-31.250000
4996,-31.250000
4997,-27.343750
4998,-27.343750
4999,-27.343750
5000,-27.343750
5001,-23.437500
5002,-23.437500
5003,-23.437500
5004,-23.437500
5005,-19.531250
5006,-19.531250
5007,-19.531250
5008,-15.625000
5009,-15.625000
5010,-15.625000
5011,-15.625000
5012,-11.718750
5013,-11.718750
5014,-11.718750
5015,-7.812500
5016,-7.812500
5017,-7.812500
5018,-7.812500
5019,-7.812500
5020,-3.906250
5021,-3.906250
5022,0.000000
5023,0.000000
5024,0.000000
5025,0.000000
5026,3.906250
5027,3.906250
5028,3.906250
5029,3.906250
5030,7.812500
5031,7.812500
5032,7.812500
5033,7.812500
5034,11.718750
5035,11.718750
5036,11.718750
5037,15.625000
5038,15.625000
5039,15.625000
5040,15.625000
5041,19.531250
5042,19.531250
5043,19.531250
5044,19.531250
5045,23.437500
5046,23.437500
5047,23.437500
5048,23.437500
5049,27.343750
5050,27.343750
5051,27.343750
5052,27.343750
5053,31.250000
5054,31.250000
5055,31.250000
5056,35.156250
5057,35.156250
5058,35.156250
5059,35.156250
5060,35.156250
5061,39.062500
5062,39.062500
5063,39.062500
5064,42.968750
5065,42.968750
5066,42.968750
5067,42.968750
5068,46.875000
5069,46.875000
5070,46.875000
5071,46.875000
5072,46.875000
5073,50.781250
5074,50.781250
5075,50.781250
5076,54.687500
5077,54.687500
5078,54.687500
5079,54.687500
5080,58.593750
5081,58.593750
5082,58.593750
5083,62.500000
5084,58.593750
5085,62.500000
5086,62.500000
5087,62.500000
5088,62.500000
5089,66.406250
5090,66.406250
5091,66.406250
5092,66.406250
5093,66.406250
5094,70.312500
5095,70.312500
5096,70.312500
5097,70.312500
5098,74.218750
5099,74.218750
5100,74.218750
5101,74.218750
5102,74.218750
5103,78.125000
5104,78.125000
5105,78.125000
5106,78.125000
5107,82.031250
5108,82.031250
5109,82.031250
5110,82.031250
5111,82.031250
5112,82.031250
5113,85.937500
5114,85.937500
5115,85.937500
5116,85.937500
5117,89.843750
5118,89.843750
5119,89.843750
5120,89.843750
5121,89.843750
5122,89.843750
5123,93.750000
5124,93.750000
5125,93.750000
5126,93.750000
5127,97.656250
5128,97.656250
5129,97.656250
5130,97.656250
5131,97.656250
5132,97.656250
5133,101.562500
5134,101.562500
5135,101.562500
5136,101.562500
5137,101.562500
5138,101.562500
5139,101.562500
5140,105.468750
5141,105.468750
5142,105.468750
5143,105.468750
5144,105.468750
5145,109.375000
5146,109.375000
5147,109.375000
5148,109.375000
5149,109.375000
5150,109.375000
5151,109.375000
5152,109.375000
5153,113.281250
5154,113.281250
5155,113.281250
5156,113.281250
5157,113.281250
5158,113.281250
5159,113.281250
5160,113.281250
5161,117.187500
5162,117.187500
5163,117.187500
5164,117.187500
5165,117.187500
5166,117.187500
5167,121.093750
5168,121.093750
5169,121.093750
5170,121.093750
5171,121.093750
5172,121.093750
5173,121.093750
5174,121.093750
5175,125.000000
5176,125.000000
5177,125.000000
5178,125.000000
5179,125.000000
5180,125.000000
5181,125.000000
5182,125.000000
5183,125.000000
5184,128.906250
5185,128.906250
5186,128.906250
5187,128.906250
5188,128.906250
5189,128.906250
5190,128.906250
5191,132.812500
5192,132.812500
5193,132.812500
5194,132.812500
5195,132.812500
5196,132.812500
5197,132.812500
5198,132.812500
5199,132.812500
5200,132.812500
5201,132.812500
5202,136.718750
5203,136.718750
5204,136.718750
5205,136.718750
5206,136.718750
5207,136.718750
5208,136.718750
5209,136.718750
5210,136.718750
5211,136.718750
5212,136.718750
5213,136.718750
5214,136.718750
5215,140.625000
5216,140.625000
5217,140.625000
5218,140.625000
5219,140.625000
5220,140.625000
5221,140.625000
5222,140.625000
5223,140.625000
5224,140.625000
5225,140.625000
5226,140.625000
5227,140.625000
5228,140.625000
5229,144.531250
5230,144.531250
5231,144.531250
5232,144.531250
5233,144.531250
5234,144.531250
5235,144.531250
5236,144.531250
5237,144.531250
5238,144.531250
5239,144.531250
5240,144.531250
5241,144.531250
5242,144.531250
5243,144.531250
5244,144.531250
5245,144.531250
5246,144.531250
5247,144.531250
5248,144.531250
5249,144.531250
5250,144.531250
5251,144.531250
5252,144.531250
5253,144.531250
5254,144.531250
5255,144.531250
5256,144.531250
5257,144.531250
5258,144.531250
5259,144.531250
5260,144.531250
5261,148.437500
5262,144.531250
5263,144.531250
5264,144.531250
5265,148.437500
5266,148.437500
5267,148.437500
5268,144.531250
5269,144.531250
5270,144.531250
5271,144.531250
5272,144.531250
5273,148.437500
5274,144.531250
5275,144.531250
5276,144.531250
5277,144.531250
5278,144.531250
5279,144.531250
5280,144.531250
5281,144.531250
5282,144.531250
5283,144.531250
5284,144.531250
5285,144.531250
5286,144.531250
5287,144.531250
5288,144.531250
5289,144.531250
5290,144.531250
5291,144.531250
5292,144.531250
5293,144.531250
5294,144.531250
5295,144.531250
5296,144.531250
5297,144.531250
5298,144.531250
5299,144.531250
5300,144.531250
5301,144.531250
5302,144.531250
5303,144.531250
5304,144.531250
5305,144.531250
5306,144.531250
5307,144.531250
5308,140.625000
5309,140.625000
5310,140.625000
5311,140.625000
5312,140.625000
5313,140.625000
5314,140.625000
5315,140.625000
5316,140.625000
5317,140.625000
5318,140.625000
5319,140.625000
5320,140.625000
5321,140.625000
5322,140.625000
5323,136.718750
5324,136.718750
5325,136.718750
5326,136.718750
5327,136.718750
5328,136.718750
5329,136.718750
5330,136.718750
5331,136.718750
5332,136.718750
5333,136.718750
5334,136.718750
5335,136.718750
5336,136.718750
5337,136.718750
5338,132.812500
5339,132.812500
5340,132.812500
5341,132.812500
5342,132.812500
5343,132.812500
5344,132.812500
5345,132.812500
5346,132.812500
5347,128.906250
5348,128.906250
5349,128.906250
5350,128.906250
5351,128.906250
5352,128.906250
5353,128.906250
5354,128.906250
5355,128.906250
5356,128.906250
5357,128.906250
5358,125.000000
5359,125.000000
5360,125.000000
5361,125.000000
5362,125.000000
5363,125.000000
5364,125.000000
5365,125.000000
5366,125.000000
5367,121.093750
5368,121.093750
5369,121.093750
5370,121.093750
5371,121.093750
5372,121.093750
5373,117.187500
5374,121.093750
5375,117.187500
5376,117.187500
5377,117.187500
5378,117.187500
5379,117.187500
5380,117.187500
5381,113.281250
5382,113.281250
5383,113.281250
5384,113.281250
5385,113.281250
5386,113.281250
5387,109.375000
5388,109.375000
5389,109.375000
5390,109.375000
5391,109.375000
5392,109.375000
5393,109.375000
5394,105.468750
5395,105.468750
5396,105.468750
5397,105.468750
5398,105.468750
5399,105.468750
5400,101.562500
5401,101.562500
5402,101.562500
5403,101.562500
5404,97.656250
5405,97.656250
5406,97.656250
5407,97.656250
5408,97.656250
5409,97.656250
5410,97.656250
5411,93.750000
5412,93.750000
5413,93.750000
5414,93.750000
5415,89.843750
5416,89.843750
5417,89.843750
5418,89.843750
5419,89.843750
5420,89.843750
5421,85.937500
5422,85.937500
5423,85.937500
5424,85.937500
5425,85.937500
5426,82.031250
5427,82.031250
5428,82.031250
5429,82.031250
5430,82.031250
5431,78.125000
5432,78.125000
5433,78.125000
5434,78.125000
5435,78.125000
5436,74.218750
5437,74.218750
5438,74.218750
5439,74.218750
5440,70.312500
5441,70.312500
5442,70.312500
5443,70.312500
5444,70.312500
5445,66.406250
5446,66.406250
5447,66.406250
5448,66.406250
5449,66.406250
5450,62.500000
5451,62.500000
5452,62.500000
5453,62.500000
5454,58.593750
5455,58.593750
5456,58.593750
5457,58.593750
5458,54.687500
5459,54.687500
5460,54.687500
5461,54.687500
5462,54.687500
5463,50.781250
5464,50.781250
5465,50.781250
5466,46.875000
5467,46.875000
5468,46.875000
5469,46.875000
5470,46.875000
5471,42.968750
5472,42.968750
5473,42.968750
5474,42.968750
5475,39.062500
5476,39.062500
5477,39.062500
5478,35.156250
5479,35.156250
5480,35.156250
5481,35.156250
5482,35.156250
5483,31.250000
5484,31.250000
5485,31.250000
5486,31.250000
5487,27.343750
5488,27.343750
5489,27.343750
5490,23.437500
5491,23.437500
5492,23.437500
5493,23.437500
5494,19.531250
5495,19.531250
5496,19.531250
5497,19.531250
5498,15.625000
5499,15.625000
5500,15.625000
5501,11.718750
5502,11.718750
5503,11.718750
5504,11.718750
5505,11.718750
5506,7.812500
5507,7.812500
5508,3.906250
5509,3.906250
5510,3.906250
5511,3.906250
5512,0.000000
5513,0.000000
5514,0.000000
5515,0.000000
5516,0.000000
5517,-3.906250
5518,-3.906250
5519,-3.906250
5520,-7.812500
5521,-7.812500
5522,-7.812500
5523,-11.718750
5524,-11.718750
5525,-11.718750
5526,-11.718750
5527,-15.625000
5528,-15.625000
5529,-15.625000
5530,-19.531250
5531,-19.531250
5532,-19.531250
5533,-23.437500
5534,-23.437500
5535,-23.437500
5536,-23.437500
5537,-27.343750
5538,-27.343750
5539,-27.343750
5540,-27.343750
5541,-31.250000
5542,-31.250000
5543,-31.250000
5544,-35.156250
5545,-35.156250
5546,-35.156250
5547,-39.062500
5548,-39.062500
5549,-39.062500
5550,-39.062500
5551,-42.968750
5552,-42.968750
5553,-42.968750
5554,-42.968750
5555,-46.875000
5556,-46.875000
5557,-46.875000
5558,-50.781250
5559,-50.781250
5560,-50.781250
5561,-50.781250
5562,-54.687500
5563,-54.687500
5564,-54.687500
5565,-54.687500
5566,-58.593750
5567,-58.593750
5568,-62.500000
5569,-62.500000
5570,-62.500000
5571,-62.500000
5572,-62.500000
5573,-66.406250
5574,-66.406250
5575,-66.406250
5576,-66.406250
5577,-70.312500
5578,-70.312500
5579,-70.312500
5580,-74.218750
5581,-74.218750
5582,-74.218750
5583,-74.218750
5584,-78.125000
5585,-78.125000
5586,-78.125000
5587,-82.031250
5588,-82.031250
5589,-82.031250
5590,-82.031250
5591,-85.937500
5592,-85.937500
5593,-85.937500
5594,-85.937500
5595,-89.843750
5596,-89.843750
5597,-89.843750
5598,-89.843750
5599,-93.750000
5600,-93.750000
5601,-93.750000
5602,-93.750000
5603,-97.656250
5604,-97.656250
5605,-97.656250
5606,-101.562500
5607,-101.562500
5608,-101.562500
5609,-101.562500
5610,-101.562500
5611,-105.468750
5612,-105.468750
5613,-105.468750
5614,-105.468750
5615,-109.375000
5616,-109.375000
5617,-109.375000
5618,-109.375000
5619,-113.281250
5620,-113.281250
5621,-113.281250
5622,-113.281250
5623,-117.187500
5624,-117.187500
5625,-117.187500
5626,-117.187500
5627,-117.187500
5628,-121.093750
5629,-121.093750
5630,-121.093750
5631,-125.000000
5632,-125.000000
5633,-125.000000
5634,-125.000000
5635,-125.000000
5636,-128.906250
5637,-128.906250
5638,-128.906250
5639,-128.906250
5640,-132.812500
5641,-132.812500
5642,-132.812500
5643,-132.812500
5644,-132.812500
5645,-136.718750
5646,-136.718750
5647,-136.718750
5648,-136.718750
5649,-136.718750
5650,-140.625000
5651,-140.625000
5652,-140.625000
5653,-140.625000
5654,-144.531250
5655,-144.531250
5656,-144.531250
5657,-144.531250
5658,-144.531250
5659,-144.531250
5660,-148.437500
5661,-148.437500
5662,-148.437500
5663,-148.437500
5664,-148.437500
5665,-152.343750
5666,-152.343750
5667,-152.343750
5668,-152.343750
5669,-156.250000
5670,-152.343750
5671,-156.250000
5672,-156.250000
5673,-156.250000
5674,-156.250000
5675,-156.250000
5676,-156.250000
5677,-160.156250
5678,-160.156250
5679,-160.156250
5680,-160.156250
5681,-160.156250
5682,-160.156250
5683,-164.062500
5684,-164.062500
5685,-164.062500
5686,-164.062500
5687,-164.062500
5688,-164.062500
5689,-167.968750
5690,-167.968750
5691,-167.968750
5692,-167.968750
5693,-167.968750
5694,-167.968750
5695,-167.968750
5696,-171.875000
5697,-171.875000
5698,-167.968750
5699,-171.875000
5700,-171.875000
5701,-171.875000
5702,-171.875000
5703,-171.875000
5704,-171.875000
5705,-175.781250
5706,-175.781250
5707,-175.781250
5708,-175.781250
5709,-175.781250
5710,-175.781250
5711,-175.781250
5712,-175.781250
5713,-175.781250
5714,-179.687500
5715,-179.687500
5716,-179.687500
5717,-179.687500
5718,-179.687500
5719,-179.687500
5720,-179.687500
5721,-183.593750
5722,-179.687500
5723,-179.687500
5724,-183.593750
5725,-183.593750
5726,-183.593750
5727,-183.593750
5728,-183.593750
5729,-183.593750
5730,-183.593750
5731,-183.593750
5732,-183.593750
5733,-183.593750
5734,-183.593750
5735,-183.593750
5736,-183.593750
5737,-183.593750
5738,-183.593750
5739,-183.593750
5740,-183.593750
5741,-187.500000
5742,-187.500000
5743,-187.500000
5744,-183.593750
5745,-187.500000
5746,-187.500000
5747,-187.500000
5748,-187.500000
5749,-187.500000
5750,-187.500000
5751,-187.500000
5752,-187.500000
5753,-187.500000
5754,-187.500000
5755,-187.500000
5756,-187.500000
5757,-187.500000
5758,-187.500000
5759,-187.500000
5760,-187.500000
5761,-187.500000
5762,-187.500000
5763,-187.500000
5764,-187.500000
5765,-187.500000
5766,-187.500000
5767,-187.500000
5768,-187.500000
5769,-187.500000
5770,-187.500000
5771,-187.500000
5772,-187.500000
5773,-187.500000
5774,-187.500000
5775,-187.500000
5776,-187.500000
5777,-187.500000
5778,-187.500000
5779,-187.500000
5780,-187.500000
5781,-187.500000
5782,-187.500000
5783,-187.500000
5784,-183.593750
5785,-187.500000
5786,-187.500000
5787,-187.500000
5788,-183.593750
5789,-183.593750
5790,-183.593750
5791,-183.593750
5792,-183.593750
5793,-183.593750
5794,-183.593750
5795,-183.593750
5796,-183.593750
5797,-183.593750
5798,-183.593750
5799,-183.593750
5800,-183.593750
5801,-183.593750
5802,-183.593750
5803,-183.593750
5804,-183.593750
5805,-183.593750
5806,-179.687500
5807,-179.687500
5808,-179.687500
5809,-179.687500
5810,-179.687500
5811,-179.687500
5812,-179.687500
5813,-179.687500
5814,-179.687500
5815,-179.687500
5816,-175.781250
5817,-175.781250
5818,-175.781250
5819,-175.781250
5820,-175.781250
5821,-175.781250
5822,-175.781250
5823,-175.781250
5824,-175.781250
5825,-175.781250
5826,-171.875000
5827,-171.875000
5828,-171.875000
5829,-171.875000
5830,-171.875000
5831,-171.875000
5832,-171.875000
5833,-167.968750
5834,-167.968750
5835,-167.968750
5836,-167.968750
5837,-167.968750
5838,-167.968750
5839,-167.968750
5840,-164.062500
5841,-164.062500
5842,-164.062500
5843,-164.062500
5844,-164.062500
5845,-164.062500
5846,-160.156250
5847,-160.156250
5848,-160.156250
5849,-160.156250
5850,-160.156250
5851,-160.156250
5852,-156.250000
5853,-156.250000
5854,-156.250000
5855,-156.250000
5856,-156.250000
5857,-156.250000
5858,-152.343750
5859,-152.343750
5860,-152.343750
5861,-152.343750
5862,-152.343750
5863,-152.343750
5864,-148.437500
5865,-148.437500
5866,-148.437500
5867,-148.437500
5868,-148.437500
5869,-144.531250
5870,-144.531250
5871,-144.531250
5872,-144.531250
5873,-144.531250
5874,-140.625000
5875,-140.625000
5876,-140.625000
5877,-140.625000
5878,-140.625000
5879,-136.718750
5880,-136.718750
5881,-136.718750
5882,-136.718750
5883,-136.718750
5884,-132.812500
5885,-132.812500
5886,-132.812500
5887,-132.812500
5888,-132.812500
5889,-128.906250
5890,-128.906250
5891,-128.906250
5892,-128.906250
5893,-128.906250
5894,-125.000000
5895,-125.000000
5896,-121.093750
5897,-121.093750
5898,-121.093750
5899,-121.093750
5900,-121.093750
5901,-121.093750
5902,-117.187500
5903,-117.187500
5904,-117.187500
5905,-117.187500
5906,-113.281250
5907,-113.281250
5908,-113.281250
5909,-113.281250
5910,-109.375000
5911,-109.375000
5912,-109.375000
5913,-109.375000
5914,-105.468750
5915,-105.468750
5916,-105.468750
5917,-105.468750
5918,-105.468750
5919,-101.562500
5920,-101.562500
5921,-101.562500
5922,-101.562500
5923,-97.656250
5924,-97.656250
5925,-97.656250
5926,-93.750000
5927,-93.750000
5928,-93.750000
5929,-93.750000
5930,-89.843750
5931,-89.843750
5932,-89.843750
5933,-89.843750
5934,-85.937500
5935,-85.937500
5936,-85.937500
5937,-85.937500
5938,-82.031250
5939,-82.031250
5940,-82.031250
5941,-82.031250
5942,-78.125000
5943,-78.125000
5944,-78.125000
5945,-74.218750
5946,-74.218750
5947,-74.218750
5948,-70.312500
5949,-70.312500
5950,-70.312500
5951,-70.312500
5952,-66.406250
5953,-66.406250
5954,-66.406250
5955,-62.500000
5956,-62.500000
5957,-62.500000
5958,-62.500000
5959,-58.593750
5960,-58.593750
5961,-58.593750
5962,-58.593750
5963,-54.687500
5964,-54.687500
5965,-54.687500
5966,-54.687500
5967,-50.781250
5968,-50.781250
5969,-50.781250
5970,-50.781250
5971,-46.875000
5972,-46.875000
5973,-46.875000
5974,-42.968750
5975,-42.968750
5976,-42.968750
5977,-39.062500
5978,-39.062500
5979,-39.062500
5980,-39.062500
5981,-35.156250
5982,-35.156250
5983,-35.156250
5984,-31.250000
5985,-31.250000
5986,-31.250000
5987,-31.250000
5988,-27.343750
5989,-27.343750
5990,-27.343750
5991,-27.343750
5992,-23.437500
5993,-23.437500
5994,-19.531250
5995,-19.531250
5996,-19.531250
5997,-19.531250
5998,-19.531250
5999,-15.625000
6000,-15.625000
6001,-15.625000
6002,-11.718750
6003,-11.718750
6004,-11.718750
6005,-11.718750
6006,-7.812500
6007,-7.812500
6008,-7.812500
6009,-3.906250
6010,-3.906250
6011,-3.906250
6012,0.000000
6013,0.000000
6014,0.000000
6015,3.906250
6016,0.000000
6017,3.906250
6018,3.906250
6019,3.906250
6020,7.812500
6021,7.812500
6022,7.812500
6023,7.812500
6024,11.718750
6025,11.718750
6026,11.718750
6027,15.625000
6028,15.625000
6029,15.625000
6030,15.625000
6031,15.625000
6032,19.531250
6033,19.531250
6034,19.531250
6035,23.437500
6036,23.437500
6037,23.437500
6038,23.437500
6039,27.343750
6040,27.343750
6041,27.343750
6042,31.250000
6043,31.250000
6044,31.250000
6045,31.250000
6046,35.156250
6047,35.156250
6048,35.156250
6049,35.156250
6050,35.156250
6051,39.062500
6052,39.062500
6053,42.968750
6054,42.968750
6055,42.968750
6056,42.968750
6057,42.968750
6058,42.968750
6059,46.875000
6060,46.875000
6061,46.875000
6062,46.875000
6063,50.781250
6064,50.781250
6065,50.781250
6066,50.781250
6067,54.687500
6068,54.687500
6069,54.687500
6070,54.687500
6071,58.593750
6072,58.593750
6073,58.593750
6074,58.593750
6075,62.500000
6076,62.500000
6077,62.500000
6078,62.500000
6079,62.500000
6080,66.406250
6081,66.406250
6082,66.406250
6083,66.406250
6084,66.406250
6085,70.312500
6086,70.312500
6087,70.312500
6088,70.312500
6089,74.218750
6090,74.218750
6091,74.218750
6092,74.218750
6093,74.218750
6094,78.125000
6095,78.125000
6096,78.125000
6097,78.125000
6098,82.031250
6099,82.031250
6100,82.031250
6101,82.031250
6102,82.031250
6103,85.937500
6104,85.937500
6105,89.843750
6106,85.937500
6107,85.937500
6108,85.937500
6109,89.843750
6110,89.843750
6111,85.937500
6112,89.843750
6113,89.843750
6114,93.750000
6115,93.750000
6116,93.750000
6117,93.750000
6118,93.750000
6119,97.656250
6120,97.656250
6121,97.656250
6122,97.656250
6123,97.656250
6124,97.656250
6125,101.562500
6126,101.562500
6127,101.562500
6128,101.562500
6129,101.562500
6130,101.562500
6131,105.468750
6132,105.468750
6133,105.468750
6134,105.468750
6135,105.468750
6136,105.468750
6137,109.375000
6138,109.375000
6139,109.375000
6140,109.375000
6141,109.375000
6142,109.375000
6143,113.281250
6144,113.281250
6145,113.281250
6146,113.281250
6147,113.281250
6148,113.281250
6149,113.281250
6150,117.187500
6151,117.187500
6152,117.187500
6153,117.187500
6154,117.187500
6155,117.187500
6156,117.187500
6157,117.187500
6158,121.093750
6159,121.093750
6160,121.093750
6161,121.093750
6162,121.093750
6163,121.093750
6164,121.093750
6165,125.000000
6166,121.093750
6167,125.000000
6168,125.000000
6169,125.000000
6170,125.000000
6171,121.093750
6172,125.000000
6173,128.906250
6174,125.000000
6175,128.906250
6176,128.906250
6177,128.906250
6178,128.906250
6179,128.906250
6180,128.906250
6181,128.906250
6182,128.906250
6183,128.906250
6184,128.906250
6185,132.812500
6186,132.812500
6187,132.812500
6188,132.812500
6189,132.812500
6190,132.812500
6191,132.812500
6192,132.812500
6193,132.812500
6194,132.812500
6195,132.812500
6196,136.718750
6197,136.718750
6198,136.718750
6199,136.718750
6200,136.718750
6201,136.718750
6202,136.718750
6203,136.718750
6204,136.718750
6205,136.718750
6206,136.718750
6207,136.718750
6208,136.718750
6209,136.718750
6210,140.625000
6211,140.625000
6212,140.625000
6213,140.625000
6214,140.625000
6215,140.625000
6216,140.625000
6217,140.625000
6218,140.625000
6219,140.625000
6220,140.625000
6221,140.625000
6222,140.625000
6223,140.625000
6224,140.625000
6225,140.625000
6226,140.625000
6227,144.531250
6228,140.625000
6229,144.531250
6230,144.531250
6231,144.531250
6232,144.531250
6233,140.625000
6234,144.531250
6235,144.531250
6236,144.531250
6237,144.531250
6238,144.531250
6239,144.531250
6240,144.531250
6241,144.531250
6242,144.531250
6243,144.531250
6244,144.531250
6245,144.531250
6246,144.531250
6247,144.531250
6248,144.531250
6249,144.531250
6250,144.531250
6251,144.531250
6252,144.531250
6253,144.531250
6254,144.531250
6255,144.531250
6256,148.437500
6257,144.531250
6258,144.531250
6259,144.531250
6260,144.531250
6261,144.531250
6262,144.531250
6263,144.531250
6264,144.531250
6265,144.531250
6266,144.531250
6267,144.531250
6268,144.531250
6269,144.531250
6270,144.531250
6271,144.531250
6272,144.531250
6273,144.531250
6274,144.531250
6275,144.531250
6276,144.531250
6277,144.531250
6278,144.531250
6279,144.531250
6280,144.531250
6281,144.531250
6282,144.531250
6283,144.531250
6284,144.531250
6285,144.531250
6286,144.531250
6287,144.531250
6288,144.531250
6289,144.531250
6290,144.531250
6291,140.625000
6292,140.625000
6293,144.531250
6294,140.625000
6295,144.531250
6296,140.625000
6297,140.625000
6298,140.625000
6299,140.625000
6300,140.625000
6301,140.625000
6302,140.625000
6303,140.625000
6304,140.625000
6305,140.625000
6306,140.625000
6307,140.625000
6308,140.625000
6309,140.625000
6310,136.718750
6311,140.625000
6312,136.718750
6313,136.718750
6314,136.718750
6315,136.718750
6316,136.718750
6317,136.718750
6318,136.718750
6319,136.718750
6320,136.718750
6321,136.718750
6322,136.718750
6323,136.718750
6324,132.812500
6325,132.812500
6326,132.812500
6327,132.812500
6328,132.812500
6329,132.812500
6330,132.812500
6331,132.812500
6332,132.812500
6333,132.812500
6334,128.906250
6335,128.906250
6336,128.906250
6337,128.906250
6338,128.906250
6339,128.906250
6340,128.906250
6341,128.906250
6342,128.906250
6343,128.906250
6344,128.906250
6345,128.906250
6346,125.000000
6347,125.000000
6348,125.000000
6349,125.000000
6350,125.000000
6351,125.000000
6352,121.093750
6353,125.000000
6354,121.093750
6355,121.093750
6356,121.093750
6357,121.093750
6358,121.093750
6359,121.093750
6360,121.093750
6361,117.187500
6362,117.187500
6363,117.187500
6364,117.187500
6365,117.187500
6366,117.187500
6367,117.187500
6368,117.187500
6369,113.281250
6370,113.281250
6371,113.281250
6372,113.281250
6373,113.281250
6374,113.281250
6375,113.281250
6376,109.375000
6377,109.375000
6378,109.375000
6379,109.375000
6380,105.468750
6381,109.375000
6382,105.468750
6383,105.468750
6384,105.468750
6385,105.468750
6386,101.562500
6387,105.468750
6388,105.468750
6389,101.562500
6390,101.562500
6391,101.562500
6392,101.562500
6393,101.562500
6394,101.562500
6395,97.656250
6396,97.656250
6397,97.656250
6398,97.656250
6399,97.656250
6400,93.750000
6401,93.750000
6402,93.750000
6403,93.750000
6404,93.750000
6405,89.843750
6406,89.843750
6407,89.843750
6408,89.843750
6409,89.843750
6410,89.843750
6411,85.937500
6412,85.937500
6413,85.937500
6414,85.937500
6415,85.937500
6416,82.031250
6417,82.031250
6418,82.031250
6419,82.031250
6420,78.125000
6421,78.125000
6422,78.125000
6423,78.125000
6424,74.218750
6425,74.218750
6426,74.218750
6427,74.218750
6428,74.218750
6429,74.218750
6430,70.312500
6431,70.312500
6432,70.312500
6433,70.312500
6434,70.312500
6435,66.406250
6436,66.406250
6437,66.406250
6438,66.406250
6439,62.500000
6440,62.500000
6441,62.500000
6442,62.500000
6443,62.500000
6444,58.593750
6445,58.593750
6446,54.687500
6447,54.687500
6448,54.687500
6449,54.687500
6450,54.687500
6451,54.687500
6452,50.781250
6453,50.781250
6454,50.781250
6455,50.781250
6456,46.875000
6457,46.875000
6458,46.875000
6459,46.875000
6460,42.968750
6461,42.968750
6462,42.968750
6463,39.062500
6464,39.062500
6465,39.062500
6466,39.062500
6467,39.062500
6468,35.156250
6469,35.156250
6470,35.156250
6471,35.156250
6472,31.250000
6473,31.250000
6474,31.250000
6475,27.343750
6476,27.343750
6477,27.343750
6478,27.343750
6479,23.437500
6480,23.437500
6481,23.437500
6482,23.437500
6483,19.531250
6484,19.531250
6485,19.531250
6486,19.531250
6487,15.625000
6488,15.625000
6489,15.625000
6490,11.718750
6491,11.718750
6492,11.718750
6493,11.718750
6494,7.812500
6495,7.812500
6496,7.812500
6497,7.812500
6498,3.906250
6499,3.906250
6500,3.906250
6501,3.906250
6502,0.000000
6503,0.000000
6504,0.000000
6505,-3.906250
6506,-3.906250
6507,-3.906250
6508,-7.812500
6509,-7.812500
6510,-7.812500
6511,-7.812500
6512,-7.812500
6513,-11.718750
6514,-11.718750
6515,-11.718750
6516,-15.625000
6517,-15.625000
6518,-15.625000
6519,-15.625000
6520,-19.531250
6521,-19.531250
6522,-19.531250
6523,-19.531250
6524,-23.437500
6525,-23.437500
6526,-27.343750
6527,-27.343750
6528,-27.343750
6529,-27.343750
6530,-31.250000
6531,-31.250000
6532,-31.250000
6533,-31.250000
6534,-35.156250
6535,-35.156250
6536,-35.156250
6537,-35.156250
6538,-39.062500
6539,-39.062500
6540,-39.062500
6541,-42.968750
6542,-42.968750
6543,-42.968750
6544,-46.875000
6545,-46.875000
6546,-46.875000
6547,-46.875000
6548,-50.781250
6549,-50.781250
6550,-50.781250
6551,-54.687500
6552,-54.687500
6553,-54.687500
6554,-54.687500
6555,-54.687500
6556,-58.593750
6557,-58.593750
6558,-62.500000
6559,-62.500000
6560,-62.500000
6561,-62.500000
6562,-66.406250
6563,-66.406250
6564,-66.406250
6565,-66.406250
6566,-70.312500
6567,-70.312500
6568,-70.312500
6569,-74.218750
6570,-74.218750
6571,-74.218750
6572,-74.218750
6573,-74.218750
6574,-78.125000
6575,-78.125000
6576,-82.031250
6577,-82.031250
6578,-82.031250
6579,-82.031250
6580,-85.937500
6581,-85.937500
6582,-85.937500
6583,-85.937500
6584,-89.843750
6585,-89.843750
6586,-89.843750
6587,-89.843750
6588,-93.750000
6589,-93.750000
6590,-93.750000
6591,-93.750000
6592,-97.656250
6593,-97.656250
6594,-97.656250
6595,-97.656250
6596,-101.562500
6597,-101.562500
6598,-101.562500
6599,-105.468750
6600,-105.468750
6601,-105.468750
6602,-105.468750
6603,-109.375000
6604,-109.375000
6605,-109.375000
6606,-109.375000
6607,-109.375000
6608,-113.281250
6609,-113.281250
6610,-113.281250
6611,-113.281250
6612,-117.187500
6613,-117.187500
6614,-117.187500
6615,-117.187500
6616,-121.093750
6617,-121.093750
6618,-121.093750
6619,-121.093750
6620,-121.093750
6621,-125.000000
6622,-125.000000
6623,-125.000000
6624,-125.000000
6625,-125.000000
6626,-128.906250
6627,-128.906250
6628,-128.906250
6629,-132.812500
6630,-132.812500
6631,-132.812500
6632,-132.812500
6633,-132.812500
6634,-132.812500
6635,-136.718750
6636,-136.718750
6637,-136.718750
6638,-140.625000
6639,-140.625000
6640,-140.625000
6641,-140.625000
6642,-140.625000
6643,-140.625000
6644,-140.625000
6645,-144.531250
6646,-144.531250
6647,-144.531250
6648,-144.531250
6649,-148.437500
6650,-148.437500
6651,-148.437500
6652,-148.437500
6653,-148.437500
6654,-148.437500
6655,-148.437500
6656,-152.343750
6657,-152.343750
6658,-152.343750
6659,-152.343750
6660,-152.343750
6661,-156.250000
6662,-156.250000
6663,-156.250000
6664,-156.250000
6665,-156.250000
6666,-160.156250
6667,-160.156250
6668,-160.156250
6669,-160.156250
6670,-160.156250
6671,-160.156250
6672,-160.156250
6673,-164.062500
6674,-164.062500
6675,-164.062500
6676,-164.062500
6677,-164.062500
6678,-164.062500
6679,-167.968750
6680,-167.968750
6681,-167.968750
6682,-167.968750
6683,-167.968750
6684,-167.968750
6685,-167.968750
6686,-171.875000
6687,-171.875000
6688,-171.875000
6689,-171.875000
6690,-171.875000
6691,-171.875000
6692,-171.875000
6693,-171.875000
6694,-171.875000
6695,-175.781250
6696,-175.781250
6697,-175.781250
6698,-175.781250
6699,-175.781250
6700,-175.781250
6701,-175.781250
6702,-175.781250
6703,-179.687500
6704,-179.687500
6705,-179.687500
6706,-179.687500
6707,-179.687500
6708,-179.687500
6709,-179.687500
6710,-179.687500
6711,-179.687500
6712,-179.687500
6713,-179.687500
6714,-183.593750
6715,-183.593750
6716,-183.593750
6717,-179.687500
6718,-183.593750
6719,-183.593750
6720,-183.593750
6721,-183.593750
6722,-183.593750
6723,-183.593750
6724,-183.593750
6725,-183.593750
6726,-183.593750
6727,-183.593750
6728,-183.593750
6729,-183.593750
6730,-183.593750
6731,-187.500000
6732,-187.500000
6733,-187.500000
6734,-187.500000
6735,-187.500000
6736,-187.500000
6737,-187.500000
6738,-187.500000
6739,-187.500000
6740,-187.500000
6741,-187.500000
6742,-187.500000
6743,-187.500000
6744,-187.500000
6745,-187.500000
6746,-187.500000
6747,-187.500000
6748,-187.500000
6749,-187.500000
6750,-187.500000
6751,-187.500000
6752,-187.500000
6753,-187.500000
6754,-187.500000
6755,-187.500000
6756,-187.500000
6757,-187.500000
6758,-187.500000
6759,-187.500000
6760,-187.500000
6761,-187.500000
6762,-187.500000
6763,-187.500000
6764,-187.500000
6765,-187.500000
6766,-187.500000
6767,-187.500000
6768,-187.500000
6769,-187.500000
6770,-183.593750
6771,-183.593750
6772,-187.500000
6773,-183.593750
6774,-183.593750
6775,-183.593750
6776,-183.593750
6777,-183.593750
6778,-183.593750
6779,-183.593750
6780,-183.593750
6781,-183.593750
6782,-183.593750
6783,-183.593750
6784,-183.593750
6785,-183.593750
6786,-183.593750
6787,-183.593750
6788,-183.593750
6789,-183.593750
6790,-179.687500
6791,-179.687500
6792,-179.687500
6793,-179.687500
6794,-179.687500
6795,-179.687500
6796,-179.687500
6797,-179.687500
6798,-179.687500
6799,-179.687500
6800,-179.687500
6801,-179.687500
6802,-175.781250
6803,-175.781250
6804,-175.781250
6805,-175.781250
6806,-175.781250
6807,-175.781250
6808,-175.781250
6809,-175.781250
6810,-175.781250
6811,-175.781250
6812,-175.781250
6813,-171.875000
6814,-171.875000
6815,-171.875000
6816,-171.875000
6817,-171.875000
6818,-171.875000
6819,-171.875000
6820,-167.968750
6821,-167.968750
6822,-167.968750
6823,-167.968750
6824,-167.968750
6825,-167.968750
6826,-167.968750
6827,-167.968750
6828,-164.062500
6829,-164.062500
6830,-164.062500
6831,-164.062500
6832,-164.062500
6833,-164.062500
6834,-160.156250
6835,-160.156250
6836,-160.156250
6837,-160.156250
6838,-160.156250
6839,-160.156250
6840,-160.156250
6841,-156.250000
6842,-156.250000
6843,-156.250000
6844,-156.250000
6845,-156.250000
6846,-156.250000
6847,-156.250000
6848,-152.343750
6849,-152.343750
6850,-152.343750
6851,-152.343750
6852,-148.437500
6853,-148.437500
6854,-148.437500
6855,-148.437500
6856,-148.437500
6857,-148.437500
6858,-144.531250
6859,-144.531250
6860,-144.531250
6861,-144.531250
6862,-144.531250
6863,-144.531250
6864,-140.625000
6865,-140.625000
6866,-140.625000
6867,-136.718750
6868,-136.718750
6869,-136.718750
6870,-136.718750
6871,-136.718750
6872,-136.718750
6873,-136.718750
6874,-132.812500
6875,-132.812500
6876,-132.812500
6877,-128.906250
6878,-128.906250
6879,-128.906250
6880,-128.906250
6881,-128.906250
6882,-128.906250
6883,-125.000000
6884,-125.000000
6885,-125.000000
6886,-121.093750
6887,-121.093750
6888,-121.093750
6889,-121.093750
6890,-121.093750
6891,-117.187500
6892,-117.187500
6893,-117.187500
6894,-113.281250
6895,-113.281250
6896,-113.281250
6897,-113.281250
6898,-113.281250
6899,-109.375000
6900,-109.375000
6901,-109.375000
6902,-109.375000
6903,-105.468750
6904,-105.468750
6905,-105.468750
6906,-105.468750
6907,-101.562500
6908,-101.562500
6909,-101.562500
6910,-101.562500
6911,-97.656250
6912,-97.656250
6913,-97.656250
6914,-93.750000
6915,-93.750000
6916,-93.750000
6917,-93.750000
6918,-93.750000
6919,-89.843750
6920,-89.843750
6921,-89.843750
6922,-85.937500
6923,-85.937500
6924,-85.937500
6925,-85.937500
6926,-82.031250
6927,-82.031250
6928,-82.031250
6929,-78.125000
6930,-78.125000
6931,-78.125000
6932,-78.125000
6933,-78.125000
6934,-74.218750
6935,-74.218750
6936,-74.218750
6937,-74.218750
6938,-70.312500
6939,-70.312500
6940,-70.312500
6941,-66.406250
6942,-66.406250
6943,-66.406250
6944,-66.406250
6945,-62.500000
6946,-62.500000
6947,-62.500000
6948,-62.500000
6949,-58.593750
6950,-58.593750
6951,-58.593750
6952,-58.593750
6953,-54.687500
6954,-54.687500
6955,-54.687500
6956,-50.781250
6957,-50.781250
6958,-50.781250
6959,-46.875000
6960,-46.875000
6961,-46.875000
6962,-46.875000
6963,-42.968750
6964,-42.968750
6965,-42.968750
6966,-42.968750
6967,-39.062500
6968,-39.062500
6969,-39.062500
6970,-35.156250
6971,-35.156250
6972,-35.156250
6973,-35.156250
6974,-31.250000
6975,-31.250000
6976,-31.250000
6977,-31.250000
6978,-27.343750
6979,-27.343750
6980,-27.343750
6981,-23.437500
6982,-23.437500
6983,-23.437500
6984,-19.531250
6985,-19.531250
6986,-19.531250
6987,-19.531250
6988,-15.625000
6989,-15.625000
6990,-15.625000
6991,-15.625000
6992,-11.718750
6993,-11.718750
6994,-11.718750
6995,-7.812500
6996,-7.812500
6997,-7.812500
6998,-3.906250
6999,-3.906250
7000,-3.906250
7001,-3.906250
7002,0.000000
7003,0.000000
7004,0.000000
7005,0.000000
7006,0.000000
7007,3.906250
7008,3.906250
7009,7.812500
7010,7.812500
7011,7.812500
7012,7.812500
7013,11.718750
7014,11.718750
7015,11.718750
7016,11.718750
7017,15.625000
7018,15.625000
7019,15.625000
7020,19.531250
7021,19.531250
7022,19.531250
7023,19.531250
7024,23.437500
7025,23.437500
7026,23.437500
7027,23.437500
7028,27.343750
7029,27.343750
7030,27.343750
7031,27.343750
7032,31.250000
7033,31.250000
7034,31.250000
7035,31.250000
7036,35.156250
7037,35.156250
7038,35.156250
7039,35.156250
7040,39.062500
7041,39.062500
7042,39.062500
7043,42.968750
7044,42.968750
7045,42.968750
7046,42.968750
7047,46.875000
7048,46.875000
7049,46.875000
7050,46.875000
7051,46.875000
7052,50.781250
7053,50.781250
7054,50.781250
7055,54.687500
7056,54.687500
7057,54.687500
7058,54.687500
7059,54.687500
7060,58.593750
7061,58.593750
7062,58.593750
7063,58.593750
7064,58.593750
7065,62.500000
7066,62.500000
7067,62.500000
7068,62.500000
7069,66.406250
7070,66.406250
7071,66.406250
7072,66.406250
7073,70.312500
7074,70.312500
7075,70.312500
7076,70.312500
7077,70.312500
7078,74.218750
7079,74.218750
7080,74.218750
7081,74.218750
7082,78.125000
7083,78.125000
7084,78.125000
7085,78.125000
7086,78.125000
7087,78.125000
7088,82.031250
7089,82.031250
7090,82.031250
7091,82.031250
7092,85.937500
7093,85.937500
7094,85.937500
7095,85.937500
7096,85.937500
7097,85.937500
7098,85.937500
7099,89.843750
7100,89.843750
7101,89.843750
7102,93.750000
7103,93.750000
7104,93.750000
7105,93.750000
7106,93.750000
7107,93.750000
7108,93.750000
7109,97.656250
7110,97.656250
7111,97.656250
7112,97.656250
7113,97.656250
7114,97.656250
7115,101.562500
7116,101.562500
7117,101.562500
7118,101.562500
7119,105.468750
7120,105.468750
7121,105.468750
7122,105.468750
7123,105.468750
7124,105.468750
7125,105.468750
7126,109.375000
7127,109.375000
7128,109.375000
7129,109.375000
7130,109.375000
7131,109.375000
7132,109.375000
7133,113.281250
7134,113.281250
7135,113.281250
7136,113.281250
7137,113.281250
7138,113.281250
7139,113.281250
7140,117.187500
7141,117.187500
7142,117.187500
7143,117.187500
7144,117.187500
7145,117.187500
7146,121.093750
7147,121.093750
7148,121.093750
7149,121.093750
7150,121.093750
7151,121.093750
7152,121.093750
7153,121.093750
7154,125.000000
7155,125.000000
7156,125.000000
7157,125.000000
7158,125.000000
7159,125.000000
7160,125.000000
7161,125.000000
7162,128.906250
7163,128.906250
7164,128.906250
7165,128.906250
7166,128.906250
7167,128.906250
7168,128.906250
7169,128.906250
7170,128.906250
7171,128.906250
7172,132.812500
7173,132.812500
7174,132.812500
7175,132.812500
7176,132.812500
7177,132.812500
7178,132.812500
7179,132.812500
7180,132.812500
7181,132.812500
7182,132.812500
7183,136.718750
7184,136.718750
7185,136.718750
7186,136.718750
7187,136.718750
7188,136.718750
7189,136.718750
7190,136.718750
7191,136.718750
7192,136.718750
7193,136.718750
7194,136.718750
7195,136.718750
7196,140.625000
7197,136.718750
7198,136.718750
7199,140.625000
7200,140.625000
7201,140.625000
7202,140.625000
7203,140.625000
7204,140.625000
7205,140.625000
7206,140.625000
7207,140.625000
7208,140.625000
7209,140.625000
7210,140.625000
7211,140.625000
7212,140.625000
7213,144.531250
7214,140.625000
7215,140.625000
7216,140.625000
7217,144.531250
7218,144.531250
7219,144.531250
7220,144.531250
7221,144.531250
7222,144.531250
7223,144.531250
7224,144.531250
7225,144.531250
7226,144.531250
7227,144.531250
7228,144.531250
7229,144.531250
7230,144.531250
7231,144.531250
7232,144.531250
7233,144.531250
7234,144.531250
7235,144.531250
7236,144.531250
7237,144.531250
7238,144.531250
7239,144.531250
7240,144.531250
7241,144.531250
7242,144.531250
7243,144.531250
7244,144.531250
7245,144.531250
7246,144.531250
7247,144.531250
7248,144.531250
7249,144.531250
7250,144.531250
7251,144.531250
7252,144.531250
7253,144.531250
7254,144.531250
7255,144.531250
7256,144.531250
7257,144.531250
7258,144.531250
7259,144.531250
7260,144.531250
7261,144.531250
7262,144.531250
7263,144.531250
7264,144.531250
7265,144.531250
7266,144.531250
7267,144.531250
7268,144.531250
7269,144.531250
7270,144.531250
7271,144.531250
7272,144.531250
7273,144.531250
7274,144.531250
7275,144.531250
7276,144.531250
7277,144.531250
7278,144.531250
7279,144.531250
7280,140.625000
7281,140.625000
7282,144.531250
7283,140.625000
7284,140.625000
7285,144.531250
7286,140.625000
7287,140.625000
7288,144.531250
7289,140.625000
7290,140.625000
7291,144.531250
7292,140.625000
7293,140.625000
7294,140.625000
7295,140.625000
7296,140.625000
7297,136.718750
7298,140.625000
7299,140.625000
7300,140.625000
7301,140.625000
7302,136.718750
7303,136.718750
7304,136.718750
7305,136.718750
7306,136.718750
7307,136.718750
7308,136.718750
7309,136.718750
7310,136.718750
7311,136.718750
7312,136.718750
7313,132.812500
7314,136.718750
7315,132.812500
7316,132.812500
7317,132.812500
7318,132.812500
7319,132.812500
7320,132.812500
7321,132.812500
7322,132.812500
7323,132.812500
7324,128.906250
7325,132.812500
7326,128.906250
7327,128.906250
7328,128.906250
7329,128.906250
7330,128.906250
7331,128.906250
7332,128.906250
7333,128.906250
7334,125.000000
7335,125.000000
7336,125.000000
7337,125.000000
7338,125.000000
7339,125.000000
7340,125.000000
7341,125.000000
7342,121.093750
7343,121.093750
7344,121.093750
7345,121.093750
7346,121.093750
7347,121.093750
7348,121.093750
7349,121.093750
7350,121.093750
7351,117.187500
7352,117.187500
7353,117.187500
7354,117.187500
7355,117.187500
7356,117.187500
7357,117.187500
7358,113.281250
7359,113.281250
7360,113.281250
7361,113.281250
7362,113.281250
7363,113.281250
7364,109.375000
7365,109.375000
7366,109.375000
7367,109.375000
7368,109.375000
7369,109.375000
7370,105.468750
7371,105.468750
7372,105.468750
7373,105.468750
7374,105.468750
7375,105.468750
7376,105.468750
7377,101.562500
7378,101.562500
7379,101.562500
7380,101.562500
7381,101.562500
7382,101.562500
7383,97.656250
7384,97.656250
7385,97.656250
7386,97.656250
7387,97.656250
7388,97.656250
7389,93.750000
7390,93.750000
7391,93.750000
7392,93.750000
7393,89.843750
7394,89.843750
7395,89.843750
7396,89.843750
7397,89.843750
7398,89.843750
7399,85.937500
7400,85.937500
7401,85.937500
7402,85.937500
7403,85.937500
7404,82.031250
7405,82.031250
7406,82.031250
7407,82.031250
7408,82.031250
7409,78.125000
7410,78.125000
7411,78.125000
7412,78.125000
7413,78.125000
7414,78.125000
7415,74.218750
7416,74.218750
7417,74.218750
7418,74.218750
7419,70.312500
7420,70.312500
7421,70.312500
7422,70.312500
7423,70.312500
7424,66.406250
7425,66.406250
7426,66.406250
7427,66.406250
7428,62.500000
7429,62.500000
7430,62.500000
7431,62.500000
7432,58.593750
7433,58.593750
7434,58.593750
7435,58.593750
7436,54.687500
7437,54.687500
7438,54.687500
7439,54.687500
7440,50.781250
7441,50.781250
7442,50.781250
7443,50.781250
7444,50.781250
7445,50.781250
7446,46.875000
7447,46.875000
7448,46.875000
7449,42.968750
7450,42.968750
7451,42.968750
7452,39.062500
7453,39.062500
7454,39.062500
7455,39.062500
7456,39.062500
7457,35.156250
7458,35.156250
7459,35.156250
7460,35.156250
7461,31.250000
7462,31.250000
7463,31.250000
7464,27.343750
7465,31.250000
7466,27.343750
7467,27.343750
7468,23.437500
7469,23.437500
7470,23.437500
7471,23.437500
7472,19.531250
7473,19.531250
7474,19.531250
7475,19.531250
7476,15.625000
7477,15.625000
7478,15.625000
7479,11.718750
7480,11.718750
7481,11.718750
7482,11.718750
7483,7.812500
7484,7.812500
7485,7.812500
7486,7.812500
7487,3.906250
7488,3.906250
7489,0.000000
7490,0.000000
7491,0.000000
7492,0.000000
7493,0.000000
7494,-3.906250
7495,-3.906250
7496,-3.906250
7497,-3.906250
7498,-7.812500
7499,-7.812500
7500,-7.812500
7501,-11.718750
7502,-11.718750
7503,-11.718750
7504,-11.718750
7505,-15.625000
7506,-15.625000
7507,-15.625000
7508,-19.531250
7509,-19.531250
7510,-19.531250
7511,-19.531250
7512,-23.437500
7513,-23.437500
7514,-23.437500
7515,-23.437500
7516,-27.343750
7517,-27.343750
7518,-27.343750
7519,-31.250000
7520,-31.250000
7521,-31.250000
7522,-31.250000
7523,-35.156250
7524,-35.156250
7525,-35.156250
7526,-39.062500
7527,-39.062500
7528,-39.062500
7529,-39.062500
7530,-42.968750
7531,-42.968750
7532,-42.968750
7533,-46.875000
7534,-46.875000
7535,-46.875000
7536,-46.875000
7537,-46.875000
7538,-50.781250
7539,-50.781250
7540,-54.687500
7541,-54.687500
7542,-54.687500
7543,-54.687500
7544,-58.593750
7545,-58.593750
7546,-58.593750
7547,-62.500000
7548,-62.500000
7549,-62.500000
7550,-62.500000
7551,-66.406250
7552,-66.406250
7553,-66.406250
7554,-66.406250
7555,-70.312500
7556,-70.312500
7557,-70.312500
7558,-70.312500
7559,-74.218750
7560,-74.218750
7561,-74.218750
7562,-78.125000
7563,-78.125000
7564,-78.125000
7565,-78.125000
7566,-82.031250
7567,-82.031250
7568,-82.031250
7569,-82.031250
7570,-85.937500
7571,-85.937500
7572,-85.937500
7573,-85.937500
7574,-89.843750
7575,-89.843750
7576,-93.750000
7577,-93.750000
7578,-93.750000
7579,-93.750000
7580,-93.750000
7581,-97.656250
7582,-97.656250
7583,-97.656250
7584,-101.562500
7585,-101.562500
7586,-101.562500
7587,-101.562500
7588,-101.562500
7589,-105.468750
7590,-105.468750
7591,-105.468750
7592,-109.375000
7593,-109.375000
7594,-109.375000
7595,-109.375000
7596,-109.375000
7597,-113.281250
7598,-113.281250
7599,-113.281250
7600,-113.281250
7601,-117.187500
7602,-117.187500
7603,-117.187500
7604,-117.187500
7605,-121.093750
7606,-121.093750
7607,-121.093750
7608,-121.093750
7609,-125.000000
7610,-125.000000
7611,-125.000000
7612,-125.000000
7613,-128.906250
7614,-128.906250
7615,-128.906250
7616,-128.906250
7617,-132.812500
7618,-132.812500
7619,-132.812500
7620,-132.812500
7621,-136.718750
7622,-132.812500
7623,-136.718750
7624,-136.718750
7625,-136.718750
7626,-136.718750
7627,-140.625000
7628,-140.625000
7629,-140.625000
7630,-144.531250
7631,-144.531250
7632,-144.531250
7633,-144.531250
7634,-144.531250
7635,-144.531250
7636,-144.531250
7637,-144.531250
7638,-148.437500
7639,-148.437500
7640,-148.437500
7641,-148.437500
7642,-152.343750
7643,-152.343750
7644,-152.343750
7645,-152.343750
7646,-152.343750
7647,-152.343750
7648,-156.250000
7649,-156.250000
7650,-156.250000
7651,-156.250000
7652,-156.250000
7653,-160.156250
7654,-164.062500
7655,-160.156250
7656,-160.156250
7657,-160.156250
7658,-160.156250
7659,-160.156250
7660,-160.156250
7661,-164.062500
7662,-164.062500
7663,-167.968750
7664,-164.062500
7665,-164.062500
7666,-164.062500
7667,-167.968750
7668,-167.968750
7669,-167.968750
7670,-167.968750
7671,-167.968750
7672,-167.968750
7673,-171.875000
7674,-171.875000
7675,-171.875000
7676,-171.875000
7677,-171.875000
7678,-171.875000
7679,-171.875000
7680,-171.875000
7681,-171.875000
7682,-175.781250
7683,-175.781250
7684,-175.781250
7685,-175.781250
7686,-175.781250
7687,-175.781250
7688,-175.781250
7689,-179.687500
7690,-175.781250
7691,-175.781250
7692,-179.687500
7693,-179.687500
7694,-179.687500
7695,-179.687500
7696,-179.687500
7697,-179.687500
7698,-179.687500
7699,-179.687500
7700,-179.687500
7701,-183.593750
7702,-179.687500
7703,-183.593750
7704,-183.593750
7705,-183.593750
7706,-183.593750
7707,-183.593750
7708,-183.593750
7709,-183.593750
7710,-183.593750
7711,-183.593750
7712,-183.593750
7713,-183.593750
7714,-183.593750
7715,-183.593750
7716,-187.500000
7717,-183.593750
7718,-183.593750
7719,-187.500000
7720,-187.500000
7721,-187.500000
7722,-187.500000
7723,-187.500000
7724,-187.500000
7725,-187.500000
7726,-187.500000
7727,-187.500000
7728,-187.500000
7729,-187.500000
7730,-187.500000
7731,-187.500000
7732,-187.500000
7733,-187.500000
7734,-187.500000
7735,-187.500000
7736,-183.593750
7737,-187.500000
7738,-187.500000
7739,-191.406250
7740,-187.500000
7741,-191.406250
7742,-187.500000
7743,-187.500000
7744,-187.500000
7745,-187.500000
7746,-187.500000
7747,-187.500000
7748,-187.500000
7749,-187.500000
7750,-187.500000
7751,-187.500000
7752,-187.500000
7753,-187.500000
7754,-187.500000
7755,-187.500000
7756,-187.500000
7757,-187.500000
7758,-187.500000
7759,-187.500000
7760,-187.500000
7761,-187.500000
7762,-187.500000
7763,-187.500000
7764,-187.500000
7765,-187.500000
7766,-187.500000
7767,-187.500000
7768,-183.593750
7769,-187.500000
7770,-187.500000
7771,-187.500000
7772,-183.593750
7773,-183.593750
7774,-183.593750
7775,-183.593750
7776,-183.593750
7777,-183.593750
7778,-183.593750
7779,-183.593750
7780,-183.593750
7781,-183.593750
7782,-183.593750
7783,-183.593750
7784,-183.593750
7785,-179.687500
7786,-183.593750
7787,-179.687500
7788,-179.687500
7789,-179.687500
7790,-179.687500
7791,-179.687500
7792,-179.687500
7793,-179.687500
7794,-179.687500
7795,-179.687500
7796,-175.781250
7797,-175.781250
7798,-175.781250
7799,-175.781250
7800,-175.781250
7801,-175.781250
7802,-175.781250
7803,-175.781250
7804,-175.781250
7805,-175.781250
7806,-171.875000
7807,-171.875000
7808,-171.875000
7809,-171.875000
7810,-171.875000
7811,-167.968750
7812,-167.968750
7813,-167.968750
7814,-171.875000
7815,-167.968750
7816,-167.968750
7817,-167.968750
7818,-167.968750
7819,-167.968750
7820,-164.062500
7821,-164.062500
7822,-164.062500
7823,-164.062500
7824,-164.062500
7825,-164.062500
7826,-164.062500
7827,-160.156250
7828,-160.156250
7829,-160.156250
7830,-160.156250
7831,-160.156250
7832,-160.156250
7833,-156.250000
7834,-156.250000
7835,-156.250000
7836,-156.250000
7837,-156.250000
7838,-152.343750
7839,-152.343750
7840,-152.343750
7841,-152.343750
7842,-152.343750
7843,-152.343750
7844,-148.437500
7845,-148.437500
7846,-148.437500
7847,-148.437500
7848,-148.437500
7849,-144.531250
7850,-144.531250
7851,-144.531250
7852,-144.531250
7853,-144.531250
7854,-140.625000
7855,-140.625000
7856,-140.625000
7857,-140.625000
7858,-140.625000
7859,-136.718750
7860,-136.718750
7861,-136.718750
7862,-136.718750
7863,-136.718750
7864,-132.812500
7865,-132.812500
7866,-132.812500
7867,-132.812500
7868,-132.812500
7869,-128.906250
7870,-128.906250
7871,-128.906250
7872,-128.906250
7873,-125.000000
7874,-125.000000
7875,-125.000000
7876,-125.000000
7877,-121.093750
7878,-121.093750
7879,-121.093750
7880,-121.093750
7881,-117.187500
7882,-117.187500
7883,-117.187500
7884,-117.187500
7885,-117.187500
7886,-113.281250
7887,-113.281250
7888,-113.281250
7889,-113.281250
7890,-109.375000
7891,-109.375000
7892,-109.375000
7893,-109.375000
7894,-105.468750
7895,-105.468750
7896,-105.468750
7897,-105.468750
7898,-105.468750
7899,-101.562500
7900,-101.562500
7901,-101.562500
7902,-97.656250
7903,-97.656250
7904,-97.656250
7905,-93.750000
7906,-93.750000
7907,-93.750000
7908,-93.750000
7909,-89.843750
7910,-89.843750
7911,-89.843750
7912,-89.843750
7913,-85.937500
7914,-85.937500
7915,-85.937500
7916,-85.937500
7917,-82.031250
7918,-82.031250
7919,-82.031250
7920,-78.125000
7921,-78.125000
7922,-78.125000
7923,-78.125000
7924,-74.218750
7925,-74.218750
7926,-74.218750
7927,-70.312500
7928,-70.312500
7929,-70.312500
7930,-70.312500
7931,-66.406250
7932,-66.406250
7933,-66.406250
7934,-66.406250
7935,-62.500000
7936,-62.500000
7937,-62.500000
7938,-58.593750
7939,-58.593750
7940,-58.593750
7941,-58.593750
7942,-58.593750
7943,-54.687500
7944,-54.687500
7945,-50.781250
7946,-50.781250
7947,-50.781250
7948,-50.781250
7949,-46.875000
7950,-46.875000
7951,-46.875000
7952,-46.875000
7953,-42.968750
7954,-42.968750
7955,-42.968750
7956,-39.062500
7957,-39.062500
7958,-39.062500
7959,-39.062500
7960,-35.156250
7961,-35.156250
7962,-35.156250
7963,-35.156250
7964,-31.250000
7965,-31.250000
7966,-31.250000
7967,-27.343750
7968,-27.343750
7969,-27.343750
7970,-27.343750
7971,-23.437500
7972,-23.437500
7973,-23.437500
7974,-19.531250
7975,-19.531250
7976,-19.531250
7977,-15.625000
7978,-15.625000
7979,-15.625000
7980,-15.625000
7981,-11.718750
7982,-11.718750
7983,-11.718750
7984,-11.718750
7985,-7.812500
7986,-7.812500
7987,-7.812500
7988,-7.812500
7989,-3.906250
7990,-3.906250
7991,-3.906250
7992,0.000000
7993,0.000000
7994,0.000000
7995,3.906250
7996,3.906250
7997,3.906250
7998,3.906250
7999,3.906250
8000,7.812500
8001,7.812500
8002,7.812500
8003,11.718750
8004,11.718750
8005,11.718750
8006,15.625000
8007,15.625000
8008,15.625000
8009,15.625000
8010,15.625000
8011,19.531250
8012,19.531250
8013,19.531250
8014,23.437500
8015,23.437500
8016,23.437500
8017,23.437500
8018,23.437500
8019,27.343750
8020,27.343750
8021,27.343750
8022,31.250000
8023,31.250000
8024,31.250000
8025,31.250000
8026,35.156250
8027,35.156250
8028,35.156250
8029,35.156250
8030,39.062500
8031,39.062500
8032,39.062500
8033,39.062500
8034,42.968750
8035,42.968750
8036,42.968750
8037,42.968750
8038,46.875000
8039,46.875000
8040,46.875000
8041,46.875000
8042,50.781250
8043,50.781250
8044,50.781250
8045,50.781250
8046,54.687500
8047,54.687500
8048,54.687500
8049,54.687500
8050,54.687500
8051,58.593750
8052,58.593750
8053,58.593750
8054,62.500000
8055,62.500000
8056,62.500000
8057,62.500000
8058,62.500000
8059,62.500000
8060,66.406250
8061,66.406250
8062,66.406250
8063,70.312500
8064,70.312500
8065,70.312500
8066,70.312500
8067,74.218750
8068,74.218750
8069,74.218750
8070,74.218750
8071,74.218750
8072,78.125000
8073,78.125000
8074,78.125000
8075,78.125000
8076,78.125000
8077,82.031250
8078,82.031250
8079,82.031250
8080,82.031250
8081,82.031250
8082,85.937500
8083,85.937500
8084,85.937500
8085,85.937500
8086,85.937500
8087,89.843750
8088,89.843750
8089,89.843750
8090,89.843750
8091,89.843750
8092,93.750000
8093,93.750000
8094,93.750000
8095,93.750000
8096,93.750000
8097,93.750000
8098,97.656250
8099,97.656250
8100,97.656250
8101,97.656250
8102,97.656250
8103,101.562500
8104,101.562500
8105,101.562500
8106,101.562500
8107,101.562500
8108,101.562500
8109,101.562500
8110,105.468750
8111,105.468750
8112,105.468750
8113,105.468750
8114,105.468750
8115,109.375000
8116,109.375000
8117,109.375000
8118,109.375000
8119,109.375000
8120,109.375000
8121,109.375000
8122,109.375000
8123,113.281250
8124,113.281250
8125,113.281250
8126,113.281250
8127,113.281250
8128,117.187500
8129,113.281250
8130,117.187500
8131,117.187500
8132,117.187500
8133,117.187500
8134,117.187500
8135,117.187500
8136,117.187500
8137,121.093750
8138,121.093750
8139,121.093750
8140,121.093750
8141,121.093750
8142,121.093750
8143,121.093750
8144,121.093750
8145,125.000000
8146,125.000000
8147,125.000000
8148,125.000000
8149,125.000000
8150,125.000000
8151,125.000000
8152,125.000000
8153,125.000000
8154,125.000000
8155,128.906250
8156,128.906250
8157,128.906250
8158,128.906250
8159,128.906250
8160,128.906250
8161,128.906250
8162,128.906250
8163,132.812500
8164,128.906250
8165,132.812500
8166,132.812500
8167,132.812500
8168,132.812500
8169,132.812500
8170,132.812500
8171,132.812500
8172,132.812500
8173,132.812500
8174,136.718750
8175,136.718750
8176,136.718750
8177,136.718750
8178,136.718750
8179,136.718750
8180,136.718750
8181,136.718750
8182,136.718750
8183,136.718750
8184,136.718750
8185,136.718750
8186,140.625000
8187,140.625000
8188,140.625000
8189,140.625000
8190,140.625000
8191,140.625000
8192,140.625000
8193,140.625000
8194,140.625000
8195,140.625000
8196,140.625000
8197,140.625000
8198,140.625000
8199,140.625000
8200,140.625000
8201,140.625000
8202,140.625000
8203,144.531250
8204,140.625000
8205,144.531250
8206,144.531250
8207,144.531250
8208,144.531250
8209,144.531250
8210,144.531250
8211,144.531250
8212,144.531250
8213,144.531250
8214,144.531250
8215,144.531250
8216,144.531250
8217,144.531250
8218,144.531250
8219,144.531250
8220,144.531250
8221,144.531250
8222,144.531250
8223,144.531250
8224,144.531250
8225,144.531250
8226,144.531250
8227,144.531250
8228,144.531250
8229,144.531250
8230,144.531250
8231,144.531250
8232,144.531250
8233,144.531250
8234,144.531250
8235,144.531250
8236,144.531250
8237,144.531250
8238,144.531250
8239,144.531250
8240,144.531250
8241,144.531250
8242,144.531250
8243,144.531250
8244,144.531250
8245,144.531250
8246,144.531250
8247,144.531250
8248,144.531250
8249,144.531250
8250,144.531250
8251,144.531250
8252,144.531250
8253,144.531250
8254,144.531250
8255,144.531250
8256,144.531250
8257,144.531250
8258,144.531250
8259,144.531250
8260,144.531250
8261,144.531250
8262,144.531250
8263,144.531250
8264,144.531250
8265,144.531250
8266,144.531250
8267,144.531250
8268,140.625000
8269,144.531250
8270,140.625000
8271,140.625000
8272,144.531250
8273,140.625000
8274,140.625000
8275,140.625000
8276,140.625000
8277,140.625000
8278,140.625000
8279,140.625000
8280,140.625000
8281,140.625000
8282,140.625000
8283,140.625000
8284,140.625000
8285,140.625000
8286,140.625000
8287,140.625000
8288,140.625000
8289,140.625000
8290,140.625000
8291,136.718750
8292,136.718750
8293,136.718750
8294,136.718750
8295,136.718750
8296,136.718750
8297,136.718750
8298,136.718750
8299,136.718750
8300,136.718750
8301,136.718750
8302,136.718750
8303,136.718750
8304,132.812500
8305,132.812500
8306,132.812500
8307,132.812500
8308,132.812500
8309,132.812500
8310,132.812500
8311,132.812500
8312,132.812500
8313,132.812500
8314,132.812500
8315,128.906250
8316,128.906250
8317,128.906250
8318,128.906250
8319,128.906250
8320,128.906250
8321,128.906250
8322,128.906250
8323,128.906250
8324,128.906250
8325,128.906250
8326,125.000000
8327,125.000000
8328,125.000000
8329,125.000000
8330,125.000000
8331,125.000000
8332,125.000000
8333,125.000000
8334,121.093750
8335,121.093750
8336,121.093750
8337,121.093750
8338,121.093750
8339,121.093750
8340,121.093750
8341,121.093750
8342,117.187500
8343,117.187500
8344,117.187500
8345,117.187500
8346,117.187500
8347,117.187500
8348,117.187500
8349,113.281250
8350,113.281250
8351,113.281250
8352,113.281250
8353,113.281250
8354,113.281250
8355,113.281250
8356,113.281250
8357,109.375000
8358,109.375000
8359,109.375000
8360,109.375000
8361,105.468750
8362,105.468750
8363,105.468750
8364,105.468750
8365,105.468750
8366,105.468750
8367,105.468750
8368,101.562500
8369,101.562500
8370,101.562500
8371,101.562500
8372,101.562500
8373,97.656250
8374,97.656250
8375,97.656250
8376,97.656250
8377,97.656250
8378,97.656250
8379,93.750000
8380,93.750000
8381,93.750000
8382,93.750000
8383,93.750000
8384,89.843750
8385,89.843750
8386,89.843750
8387,89.843750
8388,89.843750
8389,85.937500
8390,85.937500
8391,85.937500
8392,85.937500
8393,82.031250
8394,85.937500
8395,82.031250
8396,82.031250
8397,82.031250
8398,82.031250
8399,82.031250
8400,78.125000
8401,78.125000
8402,78.125000
8403,78.125000
8404,74.218750
8405,74.218750
8406,74.218750
8407,74.218750
8408,74.218750
8409,70.312500
8410,70.312500
8411,70.312500
8412,70.312500
8413,66.406250
8414,66.406250
8415,66.406250
8416,66.406250
8417,66.406250
8418,62.500000
8419,62.500000
8420,62.500000
8421,58.593750
8422,58.593750
8423,58.593750
8424,58.593750
8425,58.593750
8426,58.593750
8427,54.687500
8428,54.687500
8429,54.687500
8430,50.781250
8431,50.781250
8432,50.781250
8433,50.781250
8434,50.781250
8435,50.781250
8436,46.875000
8437,46.875000
8438,46.875000
8439,42.968750
8440,42.968750
8441,42.968750
8442,42.968750
8443,39.062500
8444,39.062500
8445,39.062500
8446,39.062500
8447,35.156250
8448,35.156250
8449,35.156250
8450,35.156250
8451,31.250000
8452,31.250000
8453,31.250000
8454,31.250000
8455,27.343750
8456,27.343750
8457,27.343750
8458,27.343750
8459,23.437500
8460,23.437500
8461,23.437500
8462,19.531250
8463,19.531250
8464,19.531250
8465,19.531250
8466,15.625000
8467,15.625000
8468,15.625000
8469,15.625000
8470,11.718750
8471,11.718750
8472,11.718750
8473,11.718750
8474,7.812500
8475,7.812500
8476,7.812500
8477,3.906250
8478,3.906250
8479,3.906250
8480,3.906250
8481,0.000000
8482,0.000000
8483,0.000000
8484,0.000000
8485,-3.906250
8486,-3.906250
8487,-3.906250
8488,-3.906250
8489,-7.812500
8490,-7.812500
8491,-7.812500
8492,-11.718750
8493,-11.718750
8494,-11.718750
8495,-15.625000
8496,-15.625000
8497,-15.625000
8498,-15.625000
8499,-19.531250
8500,-19.531250
8501,-19.531250
8502,-23.437500
8503,-23.437500
8504,-23.437500
8505,-23.437500
8506,-27.343750
8507,-27.343750
8508,-27.343750
8509,-31.250000
8510,-27.343750
8511,-31.250000
8512,-31.250000
8513,-35.156250
8514,-35.156250
8515,-35.156250
8516,-39.062500
8517,-39.062500
8518,-39.062500
8519,-42.968750
8520,-42.968750
8521,-42.968750
8522,-42.968750
8523,-42.968750
8524,-46.875000
8525,-46.875000
8526,-46.875000
8527,-50.781250
8528,-50.781250
8529,-50.781250
8530,-54.687500
8531,-54.687500
8532,-54.687500
8533,-58.593750
8534,-54.687500
8535,-58.593750
8536,-58.593750
8537,-62.500000
8538,-62.500000
8539,-62.500000
8540,-62.500000
8541,-62.500000
8542,-66.406250
8543,-66.406250
8544,-66.406250
8545,-70.312500
8546,-70.312500
8547,-70.312500
8548,-74.218750
8549,-74.218750
8550,-74.218750
8551,-74.218750
8552,-78.125000
8553,-78.125000
8554,-78.125000
8555,-78.125000
8556,-82.031250
8557,-82.031250
8558,-82.031250
8559,-85.937500
8560,-85.937500
8561,-85.937500
8562,-85.937500
8563,-89.843750
8564,-89.843750
8565,-89.843750
8566,-89.843750
8567,-89.843750
8568,-93.750000
8569,-93.750000
8570,-93.750000
8571,-97.656250
8572,-97.656250
8573,-97.656250
8574,-97.656250
8575,-97.656250
8576,-101.562500
8577,-101.562500
8578,-105.468750
8579,-105.468750
8580,-105.468750
8581,-105.468750
8582,-105.468750
8583,-109.375000
8584,-109.375000
8585,-109.375000
8586,-113.281250
8587,-113.281250
8588,-113.281250
8589,-113.281250
8590,-113.281250
8591,-113.281250
8592,-117.187500
8593,-117.187500
8594,-117.187500
8595,-117.187500
8596,-121.093750
8597,-121.093750
8598,-121.093750
8599,-121.093750
8600,-125.000000
8601,-125.000000
8602,-125.000000
8603,-125.000000
8604,-125.000000
8605,-128.906250
8606,-128.906250
8607,-128.906250
8608,-128.906250
8609,-128.906250
8610,-132.812500
8611,-132.812500
8612,-132.812500
8613,-136.718750
8614,-136.718750
8615,-136.718750
8616,-136.718750
8617,-136.718750
8618,-140.625000
8619,-140.625000
8620,-140.625000
8621,-140.625000
8622,-140.625000
8623,-140.625000
8624,-144.531250
8625,-144.531250
8626,-144.531250
8627,-144.531250
8628,-144.531250
8629,-148.437500
8630,-148.437500
8631,-148.437500
8632,-148.437500
8633,-148.437500
8634,-152.343750
8635,-152.343750
8636,-152.343750
8637,-152.343750
8638,-152.343750
8639,-156.250000
8640,-156.250000
8641,-156.250000
8642,-156.250000
8643,-156.250000
8644,-156.250000
8645,-156.250000
8646,-160.156250
8647,-160.156250
8648,-160.156250
8649,-160.156250
8650,-160.156250
8651,-164.062500
8652,-164.062500
8653,-164.062500
8654,-164.062500
8655,-164.062500
8656,-164.062500
8657,-164.062500
8658,-167.968750
8659,-167.968750
8660,-167.968750
8661,-167.968750
8662,-167.968750
8663,-167.968750
8664,-167.968750
8665,-171.875000
8666,-171.875000
8667,-171.875000
8668,-171.875000
8669,-171.875000
8670,-171.875000
8671,-171.875000
8672,-171.875000
8673,-171.875000
8674,-175.781250
8675,-175.781250
8676,-175.781250
8677,-175.781250
8678,-175.781250
8679,-175.781250
8680,-175.781250
8681,-175.781250
8682,-179.687500
8683,-179.687500
8684,-179.687500
8685,-179.687500
8686,-179.687500
8687,-179.687500
8688,-179.687500
8689,-179.687500
8690,-179.687500
8691,-179.687500
8692,-179.687500
8693,-179.687500
8694,-183.593750
8695,-183.593750
8696,-183.593750
8697,-183.593750
8698,-183.593750
8699,-183.593750
8700,-183.593750
8701,-183.593750
8702,-183.593750
8703,-183.593750
8704,-183.593750
8705,-183.593750
8706,-183.593750
8707,-183.593750
8708,-183.593750
8709,-183.593750
8710,-183.593750
8711,-187.500000
8712,-187.500000
8713,-183.593750
8714,-183.593750
8715,-187.500000
8716,-187.500000
8717,-187.500000
8718,-187.500000
8719,-187.500000
8720,-187.500000
8721,-187.500000
8722,-187.500000
8723,-187.500000
8724,-187.500000
8725,-187.500000
8726,-187.500000
8727,-187.500000
8728,-187.500000
8729,-187.500000
8730,-187.500000
8731,-187.500000
8732,-187.500000
8733,-187.500000
8734,-187.500000
8735,-187.500000
8736,-187.500000
8737,-187.500000
8738,-187.500000
8739,-187.500000
8740,-187.500000
8741,-187.500000
8742,-187.500000
8743,-187.500000
8744,-187.500000
8745,-187.500000
8746,-187.500000
8747,-187.500000
8748,-187.500000
8749,-187.500000
8750,-187.500000
8751,-187.500000
8752,-187.500000
8753,-183.593750
8754,-183.593750
8755,-183.593750
8756,-183.593750
8757,-183.593750
8758,-183.593750
8759,-183.593750
8760,-183.593750
8761,-183.593750
8762,-183.593750
8763,-183.593750
8764,-183.593750
8765,-183.593750
8766,-183.593750
8767,-183.593750
8768,-179.687500
8769,-183.593750
8770,-183.593750
8771,-179.687500
8772,-179.687500
8773,-179.687500
8774,-183.593750
8775,-179.687500
8776,-179.687500
8777,-179.687500
8778,-179.687500
8779,-179.687500
8780,-179.687500
8781,-179.687500
8782,-179.687500
8783,-179.687500
8784,-175.781250
8785,-175.781250
8786,-175.781250
8787,-175.781250
8788,-175.781250
8789,-175.781250
8790,-175.781250
8791,-175.781250
8792,-175.781250
8793,-171.875000
8794,-171.875000
8795,-171.875000
8796,-171.875000
8797,-171.875000
8798,-171.875000
8799,-171.875000
8800,-171.875000
8801,-167.968750
8802,-167.968750
8803,-167.968750
8804,-167.968750
8805,-167.968750
8806,-167.968750
8807,-167.968750
8808,-167.968750
8809,-164.062500
8810,-167.968750
8811,-164.062500
8812,-164.062500
8813,-164.062500
8814,-160.156250
8815,-164.062500
8816,-160.156250
8817,-160.156250
8818,-160.156250
8819,-160.156250
8820,-160.156250
8821,-156.250000
8822,-156.250000
8823,-156.250000
8824,-156.250000
8825,-156.250000
8826,-156.250000
8827,-152.343750
8828,-152.343750
8829,-152.343750
8830,-152.343750
8831,-152.343750
8832,-148.437500
8833,-148.437500
8834,-148.437500
8835,-148.437500
8836,-148.437500
8837,-148.437500
8838,-144.531250
8839,-144.531250
8840,-144.531250
8841,-144.531250
8842,-144.531250
8843,-140.625000
8844,-140.625000
8845,-140.625000
8846,-140.625000
8847,-140.625000
8848,-136.718750
8849,-136.718750
8850,-136.718750
8851,-132.812500
8852,-136.718750
8853,-132.812500
8854,-132.812500
8855,-132.812500
8856,-132.812500
8857,-128.906250
8858,-128.906250
8859,-128.906250
8860,-125.000000
8861,-125.000000
8862,-125.000000
8863,-125.000000
8864,-125.000000
8865,-125.000000
8866,-121.093750
8867,-121.093750
8868,-121.093750
8869,-117.187500
8870,-117.187500
8871,-117.187500
8872,-117.187500
8873,-117.187500
8874,-113.281250
8875,-113.281250
8876,-113.281250
8877,-109.375000
8878,-113.281250
8879,-109.375000
8880,-109.375000
8881,-109.375000
8882,-109.375000
8883,-105.468750
8884,-105.468750
8885,-105.468750
8886,-105.468750
8887,-101.562500
8888,-101.562500
8889,-101.562500
8890,-101.562500
8891,-97.656250
8892,-97.656250
8893,-97.656250
8894,-93.750000
8895,-93.750000
8896,-93.750000
8897,-93.750000
8898,-89.843750
8899,-89.843750
8900,-89.843750
8901,-89.843750
8902,-85.937500
8903,-85.937500
8904,-85.937500
8905,-85.937500
8906,-82.031250
8907,-82.031250
8908,-82.031250
8909,-82.031250
8910,-78.125000
8911,-78.125000
8912,-78.125000
8913,-78.125000
8914,-74.218750
8915,-74.218750
8916,-70.312500
8917,-70.312500
8918,-70.312500
8919,-70.312500
8920,-66.406250
8921,-66.406250
8922,-66.406250
8923,-66.406250
8924,-66.406250
8925,-62.500000
8926,-62.500000
8927,-62.500000
8928,-62.500000
8929,-58.593750
8930,-58.593750
8931,-54.687500
8932,-54.687500
8933,-54.687500
8934,-54.687500
8935,-54.687500
8936,-50.781250
8937,-50.781250
8938,-50.781250
8939,-46.875000
8940,-46.875000
8941,-46.875000
8942,-46.875000
8943,-42.968750
8944,-42.968750
8945,-42.968750
8946,-39.062500
8947,-39.062500
8948,-39.062500
8949,-35.156250
8950,-35.156250
8951,-35.156250
8952,-35.156250
8953,-31.250000
8954,-31.250000
8955,-31.250000
8956,-31.250000
8957,-27.343750
8958,-27.343750
8959,-27.343750
8960,-27.343750
8961,-23.437500
8962,-23.437500
8963,-23.437500
8964,-19.531250
8965,-19.531250
8966,-19.531250
8967,-15.625000
8968,-15.625000
8969,-15.625000
8970,-15.625000
8971,-11.718750
8972,-11.718750
8973,-11.718750
8974,-11.718750
8975,-7.812500
8976,-7.812500
8977,-7.812500
8978,-3.906250
8979,-3.906250
8980,-3.906250
8981,0.000000
8982,0.000000
8983,0.000000
8984,0.000000
8985,3.906250
8986,3.906250
8987,3.906250
8988,3.906250
8989,7.812500
8990,7.812500
8991,7.812500
8992,7.812500
8993,11.718750
8994,11.718750
8995,11.718750
8996,15.625000
8997,15.625000
8998,15.625000
8999,19.531250
9000,19.531250
9001,19.531250
9002,19.531250
9003,19.531250
9004,23.437500
9005,23.437500
9006,23.437500
9007,27.343750
9008,27.343750
9009,27.343750
9010,27.343750
9011,31.250000
9012,31.250000
9013,31.250000
9014,31.250000
9015,31.250000
9016,35.156250
9017,35.156250
9018,35.156250
9019,39.062500
9020,39.062500
9021,39.062500
9022,39.062500
9023,39.062500
9024,42.968750
9025,42.968750
9026,42.968750
9027,42.968750
9028,46.875000
9029,46.875000
9030,46.875000
9031,46.875000
9032,50.781250
9033,50.781250
9034,50.781250
9035,50.781250
9036,50.781250
9037,54.687500
9038,54.687500
9039,54.687500
9040,58.593750
9041,58.593750
9042,58.593750
9043,58.593750
9044,58.593750
9045,62.500000
9046,62.500000
9047,62.500000
9048,62.500000
9049,66.406250
9050,66.406250
9051,66.406250
9052,66.406250
9053,66.406250
9054,70.312500
9055,70.312500
9056,70.312500
9057,70.312500
9058,70.312500
9059,74.218750
9060,74.218750
9061,74.218750
9062,74.218750
9063,78.125000
9064,78.125000
9065,78.125000
9066,78.125000
9067,78.125000
9068,82.031250
9069,82.031250
9070,82.031250
9071,82.031250
9072,82.031250
9073,85.937500
9074,85.937500
9075,85.937500
9076,85.937500
9077,85.937500
9078,89.843750
9079,89.843750
9080,89.843750
9081,89.843750
9082,89.843750
9083,93.750000
9084,93.750000
9085,93.750000
9086,93.750000
9087,93.750000
9088,97.656250
9089,97.656250
9090,97.656250
9091,97.656250
9092,97.656250
9093,97.656250
9094,97.656250
9095,101.562500
9096,101.562500
9097,101.562500
9098,101.562500
9099,101.562500
9100,105.468750
9101,105.468750
9102,105.468750
9103,105.468750
9104,105.468750
9105,109.375000
9106,105.468750
9107,109.375000
9108,109.375000
9109,109.375000
9110,109.375000
9111,113.281250
9112,113.281250
9113,113.281250
9114,113.281250
9115,113.281250
9116,113.281250
9117,113.281250
9118,113.281250
9119,117.187500
9120,117.187500
9121,117.187500
9122,117.187500
9123,117.187500
9124,117.187500
9125,117.187500
9126,121.093750
9127,121.093750
9128,121.093750
9129,121.093750
9130,121.093750
9131,117.187500
9132,121.093750
9133,121.093750
9134,125.000000
9135,125.000000
9136,125.000000
9137,125.000000
9138,125.000000
9139,125.000000
9140,125.000000
9141,125.000000
9142,125.000000
9143,128.906250
9144,125.000000
9145,128.906250
9146,128.906250
9147,128.906250
9148,128.906250
9149,128.906250
9150,128.906250
9151,128.906250
9152,128.906250
9153,132.812500
9154,132.812500
9155,132.812500
9156,132.812500
9157,132.812500
9158,132.812500
9159,132.812500
9160,132.812500
9161,132.812500
9162,132.812500
9163,132.812500
9164,132.812500
9165,136.718750
9166,136.718750
9167,136.718750
9168,136.718750
9169,136.718750
9170,136.718750
9171,136.718750
9172,136.718750
9173,136.718750
9174,136.718750
9175,136.718750
9176,136.718750
9177,136.718750
9178,140.625000
9179,140.625000
9180,140.625000
9181,140.625000
9182,140.625000
9183,140.625000
9184,140.625000
9185,140.625000
9186,140.625000
9187,140.625000
9188,140.625000
9189,140.625000
9190,140.625000
9191,140.625000
9192,140.625000
9193,140.625000
9194,140.625000
9195,140.625000
9196,140.625000
9197,140.625000
9198,140.625000
9199,144.531250
9200,144.531250
9201,144.531250
9202,140.625000
9203,144.531250
9204,144.531250
9205,140.625000
9206,144.531250
9207,144.531250
9208,140.625000
9209,144.531250
9210,144.531250
9211,144.531250
9212,144.531250
9213,144.531250
9214,144.531250
9215,144.531250
9216,144.531250
9217,144.531250
9218,144.531250
9219,144.531250
9220,144.531250
9221,144.531250
9222,144.531250
9223,144.531250
9224,144.531250
9225,144.531250
9226,144.531250
9227,144.531250
9228,144.531250
9229,144.531250
9230,144.531250
9231,144.531250
9232,140.625000
9233,144.531250
9234,144.531250
9235,140.625000
9236,144.531250
9237,144.531250
9238,144.531250
9239,144.531250
9240,144.531250
9241,144.531250
9242,144.531250
9243,144.531250
9244,144.531250
9245,144.531250
9246,144.531250
9247,144.531250
9248,144.531250
9249,144.531250
9250,144.531250
9251,144.531250
9252,144.531250
9253,144.531250
9254,144.531250
9255,144.531250
9256,140.625000
9257,140.625000
9258,140.625000
9259,144.531250
9260,140.625000
9261,144.531250
9262,140.625000
9263,144.531250
9264,140.625000
9265,140.625000
9266,140.625000
9267,140.625000
9268,140.625000
9269,140.625000
9270,140.625000
9271,140.625000
9272,140.625000
9273,140.625000
9274,140.625000
9275,140.625000
9276,140.625000
9277,140.625000
9278,136.718750
9279,136.718750
9280,136.718750
9281,136.718750
9282,136.718750
9283,136.718750
9284,136.718750
9285,136.718750
9286,136.718750
9287,136.718750
9288,136.718750
9289,136.718750
9290,136.718750
9291,136.718750
9292,132.812500
9293,132.812500
9294,132.812500
9295,132.812500
9296,132.812500
9297,132.812500
9298,132.812500
9299,132.812500
9300,132.812500
9301,132.812500
9302,128.906250
9303,128.906250
9304,128.906250
9305,128.906250
9306,128.906250
9307,128.906250
9308,128.906250
9309,128.906250
9310,128.906250
9311,128.906250
9312,128.906250
9313,125.000000
9314,125.000000
9315,125.000000
9316,125.000000
9317,125.000000
9318,125.000000
9319,125.000000
9320,121.093750
9321,121.093750
9322,121.093750
9323,121.093750
9324,121.093750
9325,121.093750
9326,121.093750
9327,121.093750
9328,121.093750
9329,117.187500
9330,117.187500
9331,117.187500
9332,117.187500
9333,117.187500
9334,117.187500
9335,117.187500
9336,113.281250
9337,113.281250
9338,113.281250
9339,113.281250
9340,113.281250
9341,113.281250
9342,113.281250
9343,109.375000
9344,109.375000
9345,109.375000
9346,109.375000
9347,109.375000
9348,105.468750
9349,105.468750
9350,105.468750
9351,105.468750
9352,105.468750
9353,105.468750
9354,105.468750
9355,105.468750
9356,101.562500
9357,101.562500
9358,101.562500
9359,101.562500
9360,101.562500
9361,101.562500
9362,101.562500
9363,97.656250
9364,97.656250
9365,97.656250
9366,97.656250
9367,93.750000
9368,93.750000
9369,93.750000
9370,93.750000
9371,93.750000
9372,93.750000
9373,89.843750
9374,89.843750
9375,89.843750
9376,89.843750
9377,89.843750
9378,89.843750
9379,85.937500
9380,85.937500
9381,85.937500
9382,85.937500
9383,82.031250
9384,82.031250
9385,82.031250
9386,82.031250
9387,82.031250
9388,78.125000
9389,78.125000
9390,78.125000
9391,78.125000
9392,74.218750
9393,74.218750
9394,74.218750
9395,74.218750
9396,74.218750
9397,70.312500
9398,70.312500
9399,70.312500
9400,70.312500
9401,70.312500
9402,66.406250
9403,66.406250
9404,66.406250
9405,66.406250
9406,66.406250
9407,62.500000
9408,62.500000
9409,62.500000
9410,62.500000
9411,58.593750
9412,58.593750
9413,58.593750
9414,58.593750
9415,54.687500
9416,54.687500
9417,54.687500
9418,54.687500
9419,50.781250
9420,50.781250
9421,50.781250
9422,50.781250
9423,46.875000
9424,46.875000
9425,46.875000
9426,46.875000
9427,42.968750
9428,42.968750
9429,42.968750
9430,42.968750
9431,39.062500
9432,39.062500
9433,39.062500
9434,39.062500
9435,39.062500
9436,35.156250
9437,35.156250
9438,35.156250
9439,31.250000
9440,31.250000
9441,31.250000
9442,31.250000
9443,27.343750
9444,27.343750
9445,27.343750
9446,27.343750
9447,23.437500
9448,23.437500
9449,23.437500
9450,23.437500
9451,19.531250
9452,19.531250
9453,15.625000
9454,15.625000
9455,15.625000
9456,15.625000
9457,15.625000
9458,11.718750
9459,11.718750
9460,11.718750
9461,11.718750
9462,7.812500
9463,7.812500
9464,7.812500
9465,3.906250
9466,3.906250
9467,3.906250
9468,3.906250
9469,3.906250
9470,0.000000
9471,0.000000
9472,0.000000
9473,-3.906250
9474,-3.906250
9475,-3.906250
9476,-3.906250
9477,-7.812500
9478,-7.812500
9479,-7.812500
9480,-11.718750
9481,-11.718750
9482,-11.718750
9483,-11.718750
9484,-15.625000
9485,-15.625000
9486,-15.625000
9487,-19.531250
9488,-19.531250
9489,-19.531250
9490,-19.531250
9491,-23.437500
9492,-23.437500
9493,-23.437500
9494,-23.437500
9495,-27.343750
9496,-27.343750
9497,-27.343750
9498,-31.250000
9499,-31.250000
9500,-31.250000
9501,-35.156250
9502,-35.156250
9503,-35.156250
9504,-35.156250
9505,-35.156250
9506,-39.062500
9507,-39.062500
9508,-42.968750
9509,-42.968750
9510,-42.968750
9511,-42.968750
9512,-46.875000
9513,-46.875000
9514,-46.875000
9515,-46.875000
9516,-50.781250
9517,-50.781250
9518,-50.781250
9519,-54.687500
9520,-54.687500
9521,-54.687500
9522,-54.687500
9523,-58.593750
9524,-58.593750
9525,-58.593750
9526,-62.500000
9527,-62.500000
9528,-62.500000
9529,-62.500000
9530,-66.406250
9531,-62.500000
9532,-66.406250
9533,-66.406250
9534,-70.312500
9535,-70.312500
9536,-70.312500
9537,-70.312500
9538,-74.218750
9539,-74.218750
9540,-74.218750
9541,-78.125000
9542,-78.125000
9543,-78.125000
9544,-82.031250
9545,-82.031250
9546,-82.031250
9547,-82.031250
9548,-85.937500
9549,-85.937500
9550,-85.937500
9551,-85.937500
9552,-89.843750
9553,-89.843750
9554,-89.843750
9555,-89.843750
9556,-93.750000
9557,-93.750000
9558,-93.750000
9559,-97.656250
9560,-97.656250
9561,-97.656250
9562,-97.656250
9563,-101.562500
9564,-101.562500
9565,-101.562500
9566,-101.562500
9567,-105.468750
9568,-105.468750
9569,-105.468750
9570,-105.468750
9571,-109.375000
9572,-109.375000
9573,-109.375000
9574,-109.375000
9575,-109.375000
9576,-113.281250
9577,-113.281250
9578,-113.281250
9579,-117.187500
9580,-117.187500
9581,-117.187500
9582,-117.187500
9583,-121.093750
9584,-121.093750
9585,-121.093750
9586,-121.093750
9587,-121.093750
9588,-125.000000
9589,-125.000000
9590,-125.000000
9591,-125.000000
9592,-128.906250
9593,-128.906250
9594,-128.906250
9595,-128.906250
9596,-128.906250
9597,-132.812500
9598,-132.812500
9599,-132.812500
9600,-132.812500
9601,-136.718750
9602,-136.718750
9603,-136.718750
9604,-136.718750
9605,-136.718750
9606,-140.625000
9607,-140.625000
9608,-140.625000
9609,-140.625000
9610,-144.531250
9611,-144.531250
9612,-144.531250
9613,-144.531250
9614,-144.531250
9615,-144.531250
9616,-144.531250
9617,-148.437500
9618,-148.437500
9619,-148.437500
9620,-148.437500
9621,-148.437500
9622,-152.343750
9623,-152.343750
9624,-152.343750
9625,-152.343750
9626,-152.343750
9627,-152.343750
9628,-156.250000
9629,-156.250000
9630,-156.250000
9631,-156.250000
9632,-156.250000
9633,-160.156250
9634,-160.156250
9635,-160.156250
9636,-160.156250
9637,-160.156250
9638,-160.156250
9639,-160.156250
9640,-164.062500
9641,-164.062500
9642,-164.062500
9643,-164.062500
9644,-164.062500
9645,-164.062500
9646,-164.062500
9647,-167.968750
9648,-167.968750
9649,-167.968750
9650,-167.968750
9651,-167.968750
9652,-171.875000
9653,-171.875000
9654,-171.875000
9655,-171.875000
9656,-171.875000
9657,-171.875000
9658,-171.875000
9659,-171.875000
9660,-171.875000
9661,-175.781250
9662,-175.781250
9663,-175.781250
9664,-175.781250
9665,-175.781250
9666,-175.781250
9667,-175.781250
9668,-175.781250
9669,-175.781250
9670,-179.687500
9671,-179.687500
9672,-179.687500
9673,-179.687500
9674,-179.687500
9675,-179.687500
9676,-179.687500
9677,-179.687500
9678,-179.687500
9679,-183.593750
9680,-179.687500
9681,-183.593750
9682,-183.593750
9683,-183.593750
9684,-183.593750
9685,-183.593750
9686,-183.593750
9687,-183.593750
9688,-183.593750
9689,-183.593750
9690,-183.593750
9691,-183.593750
9692,-183.593750
9693,-183.593750
9694,-183.593750
9695,-187.500000
9696,-187.500000
9697,-187.500000
9698,-187.500000
9699,-187.500000
9700,-187.500000
9701,-187.500000
9702,-187.500000
9703,-187.500000
9704,-187.500000
9705,-187.500000
9706,-187.500000
9707,-187.500000
9708,-187.500000
9709,-187.500000
9710,-187.500000
9711,-187.500000
9712,-187.500000
9713,-187.500000
9714,-187.500000
9715,-187.500000
9716,-187.500000
9717,-187.500000
9718,-187.500000
9719,-187.500000
9720,-187.500000
9721,-187.500000
9722,-187.500000
9723,-187.500000
9724,-187.500000
9725,-187.500000
9726,-187.500000
9727,-187.500000
9728,-187.500000
9729,-187.500000
9730,-187.500000
9731,-187.500000
9732,-187.500000
9733,-187.500000
9734,-187.500000
9735,-187.500000
9736,-187.500000
9737,-187.500000
9738,-187.500000
9739,-187.500000
9740,-187.500000
9741,-187.500000
9742,-187.500000
9743,-187.500000
9744,-187.500000
9745,-187.500000
9746,-183.593750
9747,-183.593750
9748,-183.593750
9749,-183.593750
9750,-183.593750
9751,-183.593750
9752,-183.593750
9753,-183.593750
9754,-183.593750
9755,-183.593750
9756,-183.593750
9757,-183.593750
9758,-183.593750
9759,-183.593750
9760,-183.593750
9761,-183.593750
9762,-179.687500
9763,-179.687500
9764,-179.687500
9765,-179.687500
9766,-179.687500
9767,-179.687500
9768,-179.687500
9769,-179.687500
9770,-179.687500
9771,-179.687500
9772,-179.687500
9773,-179.687500
9774,-175.781250
9775,-175.781250
9776,-175.781250
9777,-175.781250
9778,-175.781250
9779,-175.781250
9780,-175.781250
9781,-175.781250
9782,-175.781250
9783,-171.875000
9784,-171.875000
9785,-171.875000
9786,-171.875000
9787,-171.875000
9788,-171.875000
9789,-171.875000
9790,-171.875000
9791,-167.968750
9792,-167.968750
9793,-167.968750
9794,-167.968750
9795,-167.968750
9796,-167.968750
9797,-167.968750
9798,-167.968750
9799,-164.062500
9800,-164.062500
9801,-164.062500
9802,-164.062500
9803,-164.062500
9804,-164.062500
9805,-160.156250
9806,-160.156250
9807,-160.156250
9808,-160.156250
9809,-160.156250
9810,-160.156250
9811,-156.250000
9812,-156.250000
9813,-156.250000
9814,-156.250000
9815,-156.250000
9816,-152.343750
9817,-152.343750
9818,-152.343750
9819,-152.343750
9820,-152.343750
9821,-152.343750
9822,-148.437500
9823,-152.343750
9824,-148.437500
9825,-148.437500
9826,-148.437500
9827,-148.437500
9828,-144.531250
9829,-144.531250
9830,-144.531250
9831,-144.531250
9832,-144.531250
9833,-140.625000
9834,-140.625000
9835,-140.625000
9836,-140.625000
9837,-136.718750
9838,-136.718750
9839,-136.718750
9840,-136.718750
9841,-136.718750
9842,-136.718750
9843,-132.812500
9844,-132.812500
9845,-132.812500
9846,-132.812500
9847,-128.906250
9848,-128.906250
9849,-128.906250
9850,-128.906250
9851,-125.000000
9852,-125.000000
9853,-125.000000
9854,-125.000000
9855,-125.000000
9856,-121.093750
9857,-121.093750
9858,-121.093750
9859,-121.093750
9860,-121.093750
9861,-117.187500
9862,-117.187500
9863,-117.187500
9864,-113.281250
9865,-113.281250
9866,-113.281250
9867,-113.281250
9868,-109.375000
9869,-109.375000
9870,-109.375000
9871,-109.375000
9872,-109.375000
9873,-105.468750
9874,-105.468750
9875,-105.468750
9876,-105.468750
9877,-101.562500
9878,-101.562500
9879,-101.562500
9880,-101.562500
9881,-97.656250
9882,-97.656250
9883,-97.656250
9884,-93.750000
9885,-93.750000
9886,-93.750000
9887,-93.750000
9888,-89.843750
9889,-89.843750
9890,-89.843750
9891,-89.843750
9892,-85.937500
9893,-85.937500
9894,-85.937500
9895,-85.937500
9896,-82.031250
9897,-82.031250
9898,-82.031250
9899,-82.031250
9900,-78.125000
9901,-78.125000
9902,-78.125000
9903,-74.218750
9904,-74.218750
9905,-74.218750
9906,-74.218750
9907,-70.312500
9908,-70.312500
9909,-70.312500
9910,-66.406250
9911,-66.406250
9912,-66.406250
9913,-66.406250
9914,-66.406250
9915,-62.500000
9916,-62.500000
9917,-58.593750
9918,-58.593750
9919,-58.593750
9920,-58.593750
9921,-54.687500
9922,-54.687500
9923,-54.687500
9924,-54.687500
9925,-50.781250
9926,-50.781250
9927,-50.781250
9928,-46.875000
9929,-46.875000
9930,-46.875000
9931,-46.875000
9932,-42.968750
9933,-42.968750
9934,-42.968750
9935,-39.062500
9936,-39.062500
9937,-39.062500
9938,-39.062500
9939,-35.156250
9940,-35.156250
9941,-35.156250
9942,-35.156250
9943,-31.250000
9944,-31.250000
9945,-31.250000
9946,-27.343750
9947,-27.343750
9948,-27.343750
9949,-27.343750
9950,-23.437500
9951,-23.437500
9952,-23.437500
9953,-19.531250
9954,-19.531250
9955,-19.531250
9956,-19.531250
9957,-15.625000
9958,-15.625000
9959,-15.625000
9960,-15.625000
9961,-11.718750
9962,-11.718750
9963,-11.718750
9964,-7.812500
9965,-7.812500
9966,-7.812500
9967,-3.906250
9968,-3.906250
9969,-3.906250
9970,-3.906250
9971,0.000000
9972,0.000000
9973,0.000000
9974,0.000000
9975,3.906250
9976,3.906250
9977,3.906250
9978,3.906250
9979,7.812500
9980,7.812500
9981,11.718750
9982,11.718750
9983,11.718750
9984,11.718750
9985,11.718750
9986,15.625000
9987,15.625000
9988,15.625000
9989,15.625000
9990,19.531250
9991,19.531250
9992,19.531250
9993,19.531250
9994,23.437500
9995,23.437500
9996,23.437500
9997,27.343750
9998,27.343750
9999,27.343750
10000,27.343750
