Channel              :,CH1
Frequency            :,1.010kHz
Period               :,0.990ms
PK-PK                :,54.69mV
Probe attenuation    :,1X
Voltage per ADC value:,0.244141mV
Time interval        :,1.00000us

index,CH1_Voltage(mV)
1,-27.343750
2,-27.343750
3,-27.343750
4,-27.343750
5,-27.343750
6,-27.343750
7,-27.343750
8,-27.343750
9,-27.343750
10,-27.343750
11,-27.343750
12,-27.343750
13,-27.343750
14,-27.343750
15,-27.343750
16,-23.437500
17,-27.343750
18,-23.437500
19,-23.437500
20,-23.437500
21,-23.437500
22,-23.437500
23,-23.437500
24,-23.437500
25,-23.437500
26,-23.437500
27,-23.437500
28,-23.437500
29,-23.437500
30,-23.437500
31,-23.437500
32,-23.437500
33,-23.437500
34,-23.437500
35,-23.437500
36,-23.437500
37,-23.437500
38,-23.437500
39,-23.437500
40,-23.437500
41,-23.437500
42,-23.437500
43,-23.437500
44,-23.437500
45,-19.531250
46,-23.437500
47,-23.437500
48,-19.531250
49,-19.531250
50,-19.531250
51,-19.531250
52,-19.531250
53,-19.531250
54,-19.531250
55,-19.531250
56,-19.531250
57,-19.531250
58,-19.531250
59,-19.531250
60,-19.531250
61,-19.531250
62,-19.531250
63,-19.531250
64,-19.531250
65,-19.531250
66,-19.531250
67,-19.531250
68,-19.531250
69,-15.625000
70,-19.531250
71,-15.625000
72,-15.625000
73,-15.625000
74,-15.625000
75,-15.625000
76,-15.625000
77,-15.625000
78,-15.625000
79,-15.625000
80,-15.625000
81,-15.625000
82,-15.625000
83,-15.625000
84,-15.625000
85,-15.625000
86,-15.625000
87,-15.625000
88,-15.625000
89,-15.625000
90,-15.625000
91,-15.625000
92,-15.625000
93,-15.625000
94,-15.625000
95,-15.625000
96,-15.625000
97,-11.718750
98,-15.625000
99,-11.718750
100,-11.718750
101,-11.718750
102,-11.718750
103,-11.718750
104,-11.718750
105,-11.718750
106,-11.718750
107,-11.718750
108,-11.718750
109,-11.718750
110,-11.718750
111,-11.718750
112,-11.718750
113,-11.718750
114,-11.718750
115,-11.718750
116,-11.718750
117,-11.718750
118,-11.718750
119,-11.718750
120,-11.718750
121,-11.718750
122,-11.718750
123,-11.718750
124,-7.812500
125,-7.812500
126,-11.718750
127,-7.812500
128,-7.812500
129,-7.812500
130,-7.812500
131,-7.812500
132,-7.812500
133,-7.812500
134,-7.812500
135,-7.812500
136,-7.812500
137,-7.812500
138,-7.812500
139,-7.812500
140,-7.812500
141,-7.812500
142,-7.812500
143,-7.812500
144,-7.812500
145,-7.812500
146,-7.812500
147,-3.906250
148,-7.812500
149,-7.812500
150,-7.812500
151,-3.906250
152,-7.812500
153,-7.812500
154,-3.906250
155,-3.906250
156,-3.906250
157,-3.906250
158,-3.906250
159,-3.906250
160,-3.906250
161,-3.906250
162,-3.906250
163,-3.906250
164,-3.906250
165,-3.906250
166,-3.906250
167,-3.906250
168,-3.906250
169,-3.906250
170,-3.906250
171,-3.906250
172,-3.906250
173,-3.906250
174,-3.906250
175,-3.906250
176,-3.906250
177,-3.906250
178,0.000000
179,-3.906250
180,-3.906250
181,-3.906250
182,0.000000
183,0.000000
184,0.000000
185,0.000000
186,0.000000
187,0.000000
188,0.000000
189,0.000000
190,0.000000
191,0.000000
192,0.000000
193,0.000000
194,0.000000
195,0.000000
196,0.000000
197,0.000000
198,0.000000
199,0.000000
200,0.000000
201,0.000000
202,0.000000
203,0.000000
204,0.000000
205,0.000000
206,0.000000
207,3.906250
208,0.000000
209,0.000000
210,0.000000
211,0.000000
212,0.000000
213,0.000000
214,3.906250
215,3.906250
216,3.906250
217,3.906250
218,3.906250
219,3.906250
220,3.906250
221,3.906250
222,3.906250
223,3.906250
224,3.906250
225,3.906250
226,3.906250
227,3.906250
228,3.906250
229,3.906250
230,3.906250
231,3.906250
232,3.906250
233,3.906250
234,3.906250
235,3.906250
236,3.906250
237,3.906250
238,3.906250
239,3.906250
240,3.906250
241,3.906250
242,3.906250
243,3.906250
244,3.906250
245,3.906250
246,3.906250
247,7.812500
248,7.812500
249,7.812500
250,7.812500
251,7.812500
252,7.812500
253,7.812500
254,7.812500
255,7.812500
256,3.906250
257,7.812500
258,7.812500
259,7.812500
260,7.812500
261,7.812500
262,7.812500
263,7.812500
264,7.812500
265,7.812500
266,7.812500
267,7.812500
268,7.812500
269,7.812500
270,7.812500
271,7.812500
272,7.812500
273,7.812500
274,7.812500
275,7.812500
276,7.812500
277,7.812500
278,7.812500
279,7.812500
280,7.812500
281,7.812500
282,7.812500
283,7.812500
284,7.812500
285,7.812500
286,7.812500
287,7.812500
288,7.812500
289,7.812500
290,7.812500
291,7.812500
292,7.812500
293,7.812500
294,7.812500
295,7.812500
296,7.812500
297,7.812500
298,7.812500
299,7.812500
300,7.812500
301,7.812500
302,7.812500
303,7.812500
304,7.812500
305,7.812500
306,7.812500
307,7.812500
308,11.718750
309,7.812500
310,11.718750
311,7.812500
312,7.812500
313,11.718750
314,7.812500
315,7.812500
316,7.812500
317,11.718750
318,7.812500
319,7.812500
320,7.812500
321,11.718750
322,11.718750
323,11.718750
324,11.718750
325,11.718750
326,11.718750
327,11.718750
328,7.812500
329,11.718750
330,7.812500
331,7.812500
332,7.812500
333,11.718750
334,11.718750
335,11.718750
336,11.718750
337,11.718750
338,7.812500
339,7.812500
340,7.812500
341,11.718750
342,11.718750
343,11.718750
344,11.718750
345,11.718750
346,11.718750
347,11.718750
348,11.718750
349,11.718750
350,7.812500
351,7.812500
352,11.718750
353,11.718750
354,11.718750
355,11.718750
356,11.718750
357,11.718750
358,11.718750
359,11.718750
360,7.812500
361,11.718750
362,11.718750
363,11.718750
364,11.718750
365,11.718750
366,11.718750
367,11.718750
368,7.812500
369,7.812500
370,7.812500
371,11.718750
372,11.718750
373,7.812500
374,7.812500
375,11.718750
376,7.812500
377,7.812500
378,7.812500
379,7.812500
380,7.812500
381,7.812500
382,7.812500
383,7.812500
384,7.812500
385,7.812500
386,7.812500
387,7.812500
388,7.812500
389,7.812500
390,7.812500
391,7.812500
392,7.812500
393,7.812500
394,7.812500
395,7.812500
396,7.812500
397,7.812500
398,7.812500
399,7.812500
400,7.812500
401,7.812500
402,7.812500
403,7.812500
404,7.812500
405,7.812500
406,7.812500
407,7.812500
408,7.812500
409,7.812500
410,7.812500
411,7.812500
412,7.812500
413,7.812500
414,7.812500
415,7.812500
416,7.812500
417,7.812500
418,7.812500
419,7.812500
420,7.812500
421,7.812500
422,7.812500
423,7.812500
424,7.812500
425,7.812500
426,7.812500
427,7.812500
428,7.812500
429,7.812500
430,7.812500
431,7.812500
432,7.812500
433,7.812500
434,7.812500
435,7.812500
436,7.812500
437,7.812500
438,7.812500
439,7.812500
440,7.812500
441,7.812500
442,7.812500
443,7.812500
444,7.812500
445,7.812500
446,7.812500
447,3.906250
448,7.812500
449,7.812500
450,3.906250
451,7.812500
452,3.906250
453,7.812500
454,7.812500
455,7.812500
456,7.812500
457,7.812500
458,7.812500
459,3.906250
460,3.906250
461,3.906250
462,3.906250
463,3.906250
464,3.906250
465,3.906250
466,3.906250
467,3.906250
468,3.906250
469,3.906250
470,3.906250
471,3.906250
472,3.906250
473,3.906250
474,3.906250
475,3.906250
476,3.906250
477,3.906250
478,3.906250
479,3.906250
480,3.906250
481,3.906250
482,3.906250
483,3.906250
484,3.906250
485,3.906250
486,3.906250
487,3.906250
488,3.906250
489,3.906250
490,3.906250
491,3.906250
492,3.906250
493,3.906250
494,3.906250
495,3.906250
496,3.906250
497,3.906250
498,0.000000
499,0.000000
500,0.000000
501,0.000000
502,0.000000
503,0.000000
504,3.906250
505,0.000000
506,0.000000
507,0.000000
508,0.000000
509,0.000000
510,0.000000
511,0.000000
512,0.000000
513,0.000000
514,0.000000
515,0.000000
516,0.000000
517,0.000000
518,0.000000
519,0.000000
520,0.000000
521,0.000000
522,0.000000
523,0.000000
524,0.000000
525,0.000000
526,0.000000
527,0.000000
528,0.000000
529,-3.906250
530,-3.906250
531,-3.906250
532,-3.906250
533,-3.906250
534,-3.906250
535,0.000000
536,-3.906250
537,-3.906250
538,-3.906250
539,-3.906250
540,-3.906250
541,-3.906250
542,-3.906250
543,-3.906250
544,-3.906250
545,-3.906250
546,-3.906250
547,-3.906250
548,-3.906250
549,-3.906250
550,-3.906250
551,-3.906250
552,-3.906250
553,-3.906250
554,-3.906250
555,-3.906250
556,-3.906250
557,-3.906250
558,-3.906250
559,-3.906250
560,-3.906250
561,-3.906250
562,-3.906250
563,-3.906250
564,-3.906250
565,-7.812500
566,-7.812500
567,-7.812500
568,-7.812500
569,-7.812500
570,-7.812500
571,-7.812500
572,-7.812500
573,-7.812500
574,-7.812500
575,-7.812500
576,-7.812500
577,-7.812500
578,-7.812500
579,-7.812500
580,-7.812500
581,-7.812500
582,-7.812500
583,-7.812500
584,-7.812500
585,-7.812500
586,-7.812500
587,-7.812500
588,-7.812500
589,-7.812500
590,-7.812500
591,-7.812500
592,-7.812500
593,-7.812500
594,-7.812500
595,-11.718750
596,-11.718750
597,-11.718750
598,-11.718750
599,-11.718750
600,-11.718750
601,-11.718750
602,-11.718750
603,-11.718750
604,-11.718750
605,-11.718750
606,-11.718750
607,-11.718750
608,-11.718750
609,-11.718750
610,-11.718750
611,-11.718750
612,-11.718750
613,-11.718750
614,-11.718750
615,-11.718750
616,-11.718750
617,-15.625000
618,-15.625000
619,-15.625000
620,-15.625000
621,-11.718750
622,-11.718750
623,-11.718750
624,-11.718750
625,-11.718750
626,-15.625000
627,-15.625000
628,-15.625000
629,-15.625000
630,-15.625000
631,-15.625000
632,-15.625000
633,-15.625000
634,-15.625000
635,-15.625000
636,-15.625000
637,-15.625000
638,-15.625000
639,-15.625000
640,-15.625000
641,-15.625000
642,-15.625000
643,-15.625000
644,-15.625000
645,-15.625000
646,-15.625000
647,-19.531250
648,-19.531250
649,-19.531250
650,-19.531250
651,-19.531250
652,-19.531250
653,-19.531250
654,-19.531250
655,-19.531250
656,-19.531250
657,-19.531250
658,-19.531250
659,-19.531250
660,-19.531250
661,-19.531250
662,-19.531250
663,-19.531250
664,-19.531250
665,-19.531250
666,-19.531250
667,-19.531250
668,-19.531250
669,-19.531250
670,-19.531250
671,-19.531250
672,-19.531250
673,-19.531250
674,-19.531250
675,-19.531250
676,-19.531250
677,-23.437500
678,-23.437500
679,-23.437500
680,-23.437500
681,-23.437500
682,-23.437500
683,-23.437500
684,-23.437500
685,-23.437500
686,-23.437500
687,-23.437500
688,-23.437500
689,-23.437500
690,-27.343750
691,-23.437500
692,-23.437500
693,-23.437500
694,-23.437500
695,-23.437500
696,-23.437500
697,-23.437500
698,-23.437500
699,-23.437500
700,-23.437500
701,-23.437500
702,-23.437500
703,-23.437500
704,-23.437500
705,-27.343750
706,-27.343750
707,-27.343750
708,-27.343750
709,-27.343750
710,-27.343750
711,-27.343750
712,-27.343750
713,-27.343750
714,-27.343750
715,-27.343750
716,-27.343750
717,-27.343750
718,-27.343750
719,-27.343750
720,-27.343750
721,-27.343750
722,-27.343750
723,-27.343750
724,-27.343750
725,-27.343750
726,-27.343750
727,-27.343750
728,-27.343750
729,-27.343750
730,-27.343750
731,-27.343750
732,-27.343750
733,-27.343750
734,-27.343750
735,-27.343750
736,-27.343750
737,-27.343750
738,-27.343750
739,-31.250000
740,-31.250000
741,-31.250000
742,-27.343750
743,-27.343750
744,-31.250000
745,-31.250000
746,-31.250000
747,-31.250000
748,-31.250000
749,-31.250000
750,-31.250000
751,-27.343750
752,-31.250000
753,-31.250000
754,-31.250000
755,-31.250000
756,-31.250000
757,-31.250000
758,-31.250000
759,-31.250000
760,-31.250000
761,-31.250000
762,-31.250000
763,-31.250000
764,-31.250000
765,-31.250000
766,-31.250000
767,-31.250000
768,-31.250000
769,-31.250000
770,-31.250000
771,-31.250000
772,-31.250000
773,-31.250000
774,-31.250000
775,-31.250000
776,-31.250000
777,-31.250000
778,-35.156250
779,-31.250000
780,-31.250000
781,-35.156250
782,-35.156250
783,-35.156250
784,-35.156250
785,-35.156250
786,-35.156250
787,-35.156250
788,-35.156250
789,-31.250000
790,-35.156250
791,-35.156250
792,-35.156250
793,-35.156250
794,-35.156250
795,-35.156250
796,-35.156250
797,-35.156250
798,-35.156250
799,-35.156250
800,-35.156250
801,-35.156250
802,-35.156250
803,-35.156250
804,-35.156250
805,-35.156250
806,-35.156250
807,-35.156250
808,-35.156250
809,-35.156250
810,-35.156250
811,-35.156250
812,-35.156250
813,-35.156250
814,-35.156250
815,-35.156250
816,-35.156250
817,-35.156250
818,-35.156250
819,-35.156250
820,-35.156250
821,-35.156250
822,-35.156250
823,-35.156250
824,-35.156250
825,-35.156250
826,-35.156250
827,-35.156250
828,-35.156250
829,-35.156250
830,-35.156250
831,-35.156250
832,-35.156250
833,-35.156250
834,-35.156250
835,-35.156250
836,-35.156250
837,-35.156250
838,-35.156250
839,-35.156250
840,-35.156250
841,-35.156250
842,-35.156250
843,-35.156250
844,-35.156250
845,-35.156250
846,-35.156250
847,-35.156250
848,-35.156250
849,-35.156250
850,-35.156250
851,-35.156250
852,-35.156250
853,-35.156250
854,-35.156250
855,-35.156250
856,-35.156250
857,-35.156250
858,-35.156250
859,-35.156250
860,-35.156250
861,-35.156250
862,-35.156250
863,-35.156250
864,-35.156250
865,-35.156250
866,-35.156250
867,-35.156250
868,-35.156250
869,-35.156250
870,-35.156250
871,-35.156250
872,-35.156250
873,-35.156250
874,-35.156250
875,-35.156250
876,-35.156250
877,-35.156250
878,-35.156250
879,-35.156250
880,-35.156250
881,-35.156250
882,-35.156250
883,-35.156250
884,-35.156250
885,-35.156250
886,-35.156250
887,-35.156250
888,-35.156250
889,-35.156250
890,-35.156250
891,-35.156250
892,-35.156250
893,-35.156250
894,-35.156250
895,-35.156250
896,-35.156250
897,-35.156250
898,-35.156250
899,-35.156250
900,-35.156250
901,-35.156250
902,-35.156250
903,-35.156250
904,-35.156250
905,-35.156250
906,-35.156250
907,-35.156250
908,-35.156250
909,-35.156250
910,-35.156250
911,-35.156250
912,-35.156250
913,-35.156250
914,-35.156250
915,-35.156250
916,-35.156250
917,-35.156250
918,-35.156250
919,-35.156250
920,-35.156250
921,-35.156250
922,-35.156250
923,-35.156250
924,-35.156250
925,-35.156250
926,-35.156250
927,-35.156250
928,-35.156250
929,-35.156250
930,-35.156250
931,-35.156250
932,-35.156250
933,-35.156250
934,-35.156250
935,-31.250000
936,-35.156250
937,-31.250000
938,-31.250000
939,-31.250000
940,-31.250000
941,-31.250000
942,-31.250000
943,-31.250000
944,-31.250000
945,-31.250000
946,-31.250000
947,-31.250000
948,-31.250000
949,-31.250000
950,-31.250000
951,-31.250000
952,-31.250000
953,-31.250000
954,-31.250000
955,-31.250000
956,-31.250000
957,-31.250000
958,-31.250000
959,-31.250000
960,-31.250000
961,-31.250000
962,-31.250000
963,-31.250000
964,-31.250000
965,-31.250000
966,-31.250000
967,-27.343750
968,-31.250000
969,-31.250000
970,-31.250000
971,-27.343750
972,-27.343750
973,-27.343750
974,-31.250000
975,-27.343750
976,-27.343750
977,-27.343750
978,-27.343750
979,-27.343750
980,-27.343750
981,-27.343750
982,-27.343750
983,-27.343750
984,-27.343750
985,-27.343750
986,-27.343750
987,-27.343750
988,-27.343750
989,-27.343750
990,-27.343750
991,-27.343750
992,-27.343750
993,-27.343750
994,-27.343750
995,-27.343750
996,-27.343750
997,-27.343750
998,-27.343750
999,-27.343750
1000,-27.343750
1001,-27.343750
1002,-23.437500
1003,-27.343750
1004,-23.437500
1005,-27.343750
1006,-23.437500
1007,-23.437500
1008,-23.437500
1009,-27.343750
1010,-23.437500
1011,-23.437500
1012,-23.437500
1013,-23.437500
1014,-23.437500
1015,-23.437500
1016,-23.437500
1017,-23.437500
1018,-23.437500
1019,-23.437500
1020,-23.437500
1021,-23.437500
1022,-23.437500
1023,-23.437500
1024,-23.437500
1025,-23.437500
1026,-23.437500
1027,-23.437500
1028,-23.437500
1029,-23.437500
1030,-23.437500
1031,-23.437500
1032,-23.437500
1033,-23.437500
1034,-23.437500
1035,-19.531250
1036,-19.531250
1037,-19.531250
1038,-19.531250
1039,-19.531250
1040,-19.531250
1041,-19.531250
1042,-19.531250
1043,-19.531250
1044,-19.531250
1045,-19.531250
1046,-19.531250
1047,-19.531250
1048,-19.531250
1049,-19.531250
1050,-19.531250
1051,-19.531250
1052,-19.531250
1053,-19.531250
1054,-19.531250
1055,-19.531250
1056,-19.531250
1057,-19.531250
1058,-19.531250
1059,-19.531250
1060,-19.531250
1061,-19.531250
1062,-15.625000
1063,-15.625000
1064,-15.625000
1065,-15.625000
1066,-15.625000
1067,-15.625000
1068,-15.625000
1069,-15.625000
1070,-15.625000
1071,-15.625000
1072,-15.625000
1073,-15.625000
1074,-15.625000
1075,-15.625000
1076,-15.625000
1077,-15.625000
1078,-15.625000
1079,-15.625000
1080,-15.625000
1081,-15.625000
1082,-15.625000
1083,-15.625000
1084,-15.625000
1085,-11.718750
1086,-11.718750
1087,-11.718750
1088,-11.718750
1089,-11.718750
1090,-11.718750
1091,-11.718750
1092,-11.718750
1093,-11.718750
1094,-11.718750
1095,-11.718750
1096,-11.718750
1097,-11.718750
1098,-11.718750
1099,-11.718750
1100,-11.718750
1101,-11.718750
1102,-11.718750
1103,-11.718750
1104,-11.718750
1105,-11.718750
1106,-11.718750
1107,-11.718750
1108,-11.718750
1109,-7.812500
1110,-11.718750
1111,-11.718750
1112,-11.718750
1113,-7.812500
1114,-7.812500
1115,-7.812500
1116,-7.812500
1117,-7.812500
1118,-7.812500
1119,-7.812500
1120,-7.812500
1121,-7.812500
1122,-7.812500
1123,-7.812500
1124,-7.812500
1125,-7.812500
1126,-7.812500
1127,-7.812500
1128,-7.812500
1129,-7.812500
1130,-7.812500
1131,-7.812500
1132,-7.812500
1133,-7.812500
1134,-7.812500
1135,-7.812500
1136,-7.812500
1137,-3.906250
1138,-3.906250
1139,-3.906250
1140,-3.906250
1141,-7.812500
1142,-7.812500
1143,-3.906250
1144,-3.906250
1145,-3.906250
1146,-3.906250
1147,-3.906250
1148,-3.906250
1149,-3.906250
1150,-3.906250
1151,-3.906250
1152,-3.906250
1153,-3.906250
1154,-3.906250
1155,-3.906250
1156,-3.906250
1157,-3.906250
1158,-3.906250
1159,-3.906250
1160,-3.906250
1161,-3.906250
1162,-3.906250
1163,-3.906250
1164,-3.906250
1165,-3.906250
1166,0.000000
1167,0.000000
1168,-3.906250
1169,-3.906250
1170,-3.906250
1171,-3.906250
1172,-3.906250
1173,-3.906250
1174,0.000000
1175,0.000000
1176,0.000000
1177,0.000000
1178,0.000000
1179,0.000000
1180,0.000000
1181,0.000000
1182,0.000000
1183,0.000000
1184,0.000000
1185,0.000000
1186,0.000000
1187,0.000000
1188,0.000000
1189,0.000000
1190,0.000000
1191,0.000000
1192,0.000000
1193,0.000000
1194,0.000000
1195,0.000000
1196,0.000000
1197,0.000000
1198,0.000000
1199,3.906250
1200,3.906250
1201,0.000000
1202,0.000000
1203,3.906250
1204,0.000000
1205,0.000000
1206,3.906250
1207,3.906250
1208,3.906250
1209,3.906250
1210,3.906250
1211,3.906250
1212,3.906250
1213,3.906250
1214,3.906250
1215,3.906250
1216,3.906250
1217,3.906250
1218,3.906250
1219,3.906250
1220,3.906250
1221,3.906250
1222,3.906250
1223,3.906250
1224,3.906250
1225,3.906250
1226,3.906250
1227,3.906250
1228,3.906250
1229,3.906250
1230,3.906250
1231,3.906250
1232,3.906250
1233,3.906250
1234,3.906250
1235,7.812500
1236,3.906250
1237,3.906250
1238,3.906250
1239,3.906250
1240,3.906250
1241,3.906250
1242,7.812500
1243,3.906250
1244,3.906250
1245,7.812500
1246,7.812500
1247,7.812500
1248,7.812500
1249,7.812500
1250,7.812500
1251,7.812500
1252,7.812500
1253,7.812500
1254,7.812500
1255,7.812500
1256,7.812500
1257,7.812500
1258,7.812500
1259,7.812500
1260,7.812500
1261,7.812500
1262,7.812500
1263,7.812500
1264,7.812500
1265,7.812500
1266,7.812500
1267,7.812500
1268,7.812500
1269,7.812500
1270,7.812500
1271,7.812500
1272,7.812500
1273,7.812500
1274,7.812500
1275,7.812500
1276,7.812500
1277,7.812500
1278,7.812500
1279,7.812500
1280,7.812500
1281,7.812500
1282,7.812500
1283,7.812500
1284,7.812500
1285,7.812500
1286,7.812500
1287,7.812500
1288,7.812500
1289,7.812500
1290,7.812500
1291,7.812500
1292,7.812500
1293,7.812500
1294,7.812500
1295,7.812500
1296,7.812500
1297,7.812500
1298,7.812500
1299,7.812500
1300,7.812500
1301,7.812500
1302,7.812500
1303,7.812500
1304,7.812500
1305,7.812500
1306,7.812500
1307,11.718750
1308,11.718750
1309,11.718750
1310,7.812500
1311,7.812500
1312,11.718750
1313,7.812500
1314,7.812500
1315,11.718750
1316,11.718750
1317,11.718750
1318,11.718750
1319,11.718750
1320,11.718750
1321,11.718750
1322,11.718750
1323,7.812500
1324,11.718750
1325,11.718750
1326,11.718750
1327,11.718750
1328,7.812500
1329,11.718750
1330,11.718750
1331,11.718750
1332,11.718750
1333,11.718750
1334,11.718750
1335,11.718750
1336,7.812500
1337,11.718750
1338,11.718750
1339,11.718750
1340,11.718750
1341,11.718750
1342,11.718750
1343,11.718750
1344,11.718750
1345,11.718750
1346,11.718750
1347,11.718750
1348,11.718750
1349,11.718750
1350,11.718750
1351,11.718750
1352,11.718750
1353,11.718750
1354,11.718750
1355,11.718750
1356,7.812500
1357,11.718750
1358,11.718750
1359,11.718750
1360,11.718750
1361,7.812500
1362,11.718750
1363,11.718750
1364,11.718750
1365,11.718750
1366,11.718750
1367,11.718750
1368,11.718750
1369,11.718750
1370,11.718750
1371,11.718750
1372,11.718750
1373,11.718750
1374,11.718750
1375,7.812500
1376,11.718750
1377,11.718750
1378,7.812500
1379,11.718750
1380,7.812500
1381,11.718750
1382,11.718750
1383,11.718750
1384,7.812500
1385,11.718750
1386,7.812500
1387,7.812500
1388,7.812500
1389,11.718750
1390,7.812500
1391,11.718750
1392,7.812500
1393,7.812500
1394,7.812500
1395,7.812500
1396,7.812500
1397,7.812500
1398,7.812500
1399,7.812500
1400,7.812500
1401,7.812500
1402,7.812500
1403,7.812500
1404,7.812500
1405,7.812500
1406,7.812500
1407,7.812500
1408,7.812500
1409,7.812500
1410,7.812500
1411,7.812500
1412,7.812500
1413,7.812500
1414,7.812500
1415,7.812500
1416,7.812500
1417,7.812500
1418,7.812500
1419,7.812500
1420,7.812500
1421,7.812500
1422,7.812500
1423,7.812500
1424,7.812500
1425,7.812500
1426,7.812500
1427,7.812500
1428,7.812500
1429,7.812500
1430,7.812500
1431,7.812500
1432,7.812500
1433,7.812500
1434,7.812500
1435,7.812500
1436,7.812500
1437,7.812500
1438,3.906250
1439,7.812500
1440,7.812500
1441,7.812500
1442,7.812500
1443,3.906250
1444,3.906250
1445,3.906250
1446,3.906250
1447,7.812500
1448,3.906250
1449,3.906250
1450,3.906250
1451,3.906250
1452,3.906250
1453,3.906250
1454,3.906250
1455,3.906250
1456,3.906250
1457,3.906250
1458,3.906250
1459,3.906250
1460,3.906250
1461,3.906250
1462,3.906250
1463,3.906250
1464,3.906250
1465,3.906250
1466,3.906250
1467,3.906250
1468,3.906250
1469,3.906250
1470,3.906250
1471,3.906250
1472,3.906250
1473,3.906250
1474,3.906250
1475,3.906250
1476,3.906250
1477,3.906250
1478,3.906250
1479,3.906250
1480,3.906250
1481,3.906250
1482,3.906250
1483,3.906250
1484,3.906250
1485,3.906250
1486,3.906250
1487,3.906250
1488,0.000000
1489,3.906250
1490,0.000000
1491,0.000000
1492,3.906250
1493,0.000000
1494,0.000000
1495,0.000000
1496,0.000000
1497,0.000000
1498,0.000000
1499,0.000000
1500,0.000000
1501,0.000000
1502,0.000000
1503,0.000000
1504,0.000000
1505,0.000000
1506,0.000000
1507,0.000000
1508,0.000000
1509,0.000000
1510,0.000000
1511,0.000000
1512,0.000000
1513,0.000000
1514,0.000000
1515,0.000000
1516,0.000000
1517,0.000000
1518,0.000000
1519,0.000000
1520,0.000000
1521,0.000000
1522,0.000000
1523,0.000000
1524,-3.906250
1525,-3.906250
1526,-3.906250
1527,-3.906250
1528,-3.906250
1529,0.000000
1530,-3.906250
1531,-3.906250
1532,-3.906250
1533,-3.906250
1534,-3.906250
1535,-3.906250
1536,-3.906250
1537,-3.906250
1538,-3.906250
1539,-3.906250
1540,-3.906250
1541,-3.906250
1542,-3.906250
1543,-3.906250
1544,-3.906250
1545,-3.906250
1546,-7.812500
1547,-3.906250
1548,-3.906250
1549,-3.906250
1550,-7.812500
1551,-3.906250
1552,-7.812500
1553,-3.906250
1554,-7.812500
1555,-7.812500
1556,-7.812500
1557,-7.812500
1558,-7.812500
1559,-7.812500
1560,-7.812500
1561,-7.812500
1562,-7.812500
1563,-7.812500
1564,-7.812500
1565,-7.812500
1566,-7.812500
1567,-7.812500
1568,-7.812500
1569,-7.812500
1570,-7.812500
1571,-7.812500
1572,-7.812500
1573,-7.812500
1574,-7.812500
1575,-7.812500
1576,-7.812500
1577,-11.718750
1578,-7.812500
1579,-7.812500
1580,-7.812500
1581,-7.812500
1582,-11.718750
1583,-11.718750
1584,-11.718750
1585,-11.718750
1586,-11.718750
1587,-11.718750
1588,-11.718750
1589,-11.718750
1590,-11.718750
1591,-11.718750
1592,-11.718750
1593,-11.718750
1594,-11.718750
1595,-11.718750
1596,-11.718750
1597,-11.718750
1598,-11.718750
1599,-11.718750
1600,-11.718750
1601,-11.718750
1602,-11.718750
1603,-11.718750
1604,-11.718750
1605,-15.625000
1606,-11.718750
1607,-11.718750
1608,-11.718750
1609,-11.718750
1610,-15.625000
1611,-11.718750
1612,-15.625000
1613,-15.625000
1614,-15.625000
1615,-15.625000
1616,-15.625000
1617,-15.625000
1618,-15.625000
1619,-15.625000
1620,-15.625000
1621,-15.625000
1622,-15.625000
1623,-15.625000
1624,-15.625000
1625,-15.625000
1626,-15.625000
1627,-15.625000
1628,-15.625000
1629,-15.625000
1630,-15.625000
1631,-15.625000
1632,-15.625000
1633,-15.625000
1634,-15.625000
1635,-15.625000
1636,-15.625000
1637,-19.531250
1638,-15.625000
1639,-15.625000
1640,-19.531250
1641,-19.531250
1642,-19.531250
1643,-19.531250
1644,-19.531250
1645,-19.531250
1646,-19.531250
1647,-19.531250
1648,-19.531250
1649,-19.531250
1650,-19.531250
1651,-19.531250
1652,-19.531250
1653,-19.531250
1654,-19.531250
1655,-19.531250
1656,-19.531250
1657,-19.531250
1658,-19.531250
1659,-19.531250
1660,-19.531250
1661,-19.531250
1662,-23.437500
1663,-19.531250
1664,-23.437500
1665,-23.437500
1666,-23.437500
1667,-23.437500
1668,-23.437500
1669,-23.437500
1670,-23.437500
1671,-23.437500
1672,-23.437500
1673,-23.437500
1674,-23.437500
1675,-23.437500
1676,-23.437500
1677,-23.437500
1678,-23.437500
1679,-23.437500
1680,-23.437500
1681,-23.437500
1682,-23.437500
1683,-23.437500
1684,-23.437500
1685,-23.437500
1686,-23.437500
1687,-23.437500
1688,-23.437500
1689,-23.437500
1690,-23.437500
1691,-23.437500
1692,-23.437500
1693,-23.437500
1694,-27.343750
1695,-27.343750
1696,-27.343750
1697,-27.343750
1698,-27.343750
1699,-27.343750
1700,-27.343750
1701,-27.343750
1702,-27.343750
1703,-27.343750
1704,-27.343750
1705,-27.343750
1706,-27.343750
1707,-27.343750
1708,-27.343750
1709,-27.343750
1710,-27.343750
1711,-27.343750
1712,-27.343750
1713,-27.343750
1714,-27.343750
1715,-27.343750
1716,-27.343750
1717,-27.343750
1718,-27.343750
1719,-27.343750
1720,-27.343750
1721,-27.343750
1722,-27.343750
1723,-27.343750
1724,-27.343750
1725,-31.250000
1726,-27.343750
1727,-27.343750
1728,-31.250000
1729,-27.343750
1730,-31.250000
1731,-31.250000
1732,-27.343750
1733,-27.343750
1734,-31.250000
1735,-31.250000
1736,-31.250000
1737,-31.250000
1738,-31.250000
1739,-31.250000
1740,-31.250000
1741,-31.250000
1742,-31.250000
1743,-31.250000
1744,-31.250000
1745,-31.250000
1746,-31.250000
1747,-31.250000
1748,-31.250000
1749,-31.250000
1750,-31.250000
1751,-31.250000
1752,-31.250000
1753,-31.250000
1754,-31.250000
1755,-31.250000
1756,-31.250000
1757,-31.250000
1758,-31.250000
1759,-31.250000
1760,-31.250000
1761,-31.250000
1762,-31.250000
1763,-31.250000
1764,-31.250000
1765,-31.250000
1766,-31.250000
1767,-31.250000
1768,-31.250000
1769,-31.250000
1770,-31.250000
1771,-31.250000
1772,-31.250000
1773,-35.156250
1774,-35.156250
1775,-35.156250
1776,-35.156250
1777,-35.156250
1778,-35.156250
1779,-31.250000
1780,-31.250000
1781,-35.156250
1782,-35.156250
1783,-35.156250
1784,-35.156250
1785,-35.156250
1786,-35.156250
1787,-35.156250
1788,-35.156250
1789,-35.156250
1790,-35.156250
1791,-35.156250
1792,-35.156250
1793,-35.156250
1794,-35.156250
1795,-35.156250
1796,-35.156250
1797,-35.156250
1798,-35.156250
1799,-35.156250
1800,-35.156250
1801,-35.156250
1802,-35.156250
1803,-35.156250
1804,-35.156250
1805,-35.156250
1806,-35.156250
1807,-35.156250
1808,-35.156250
1809,-35.156250
1810,-35.156250
1811,-35.156250
1812,-35.156250
1813,-35.156250
1814,-35.156250
1815,-35.156250
1816,-35.156250
1817,-35.156250
1818,-35.156250
1819,-35.156250
1820,-35.156250
1821,-35.156250
1822,-35.156250
1823,-35.156250
1824,-35.156250
1825,-35.156250
1826,-35.156250
1827,-35.156250
1828,-35.156250
1829,-35.156250
1830,-35.156250
1831,-35.156250
1832,-35.156250
1833,-35.156250
1834,-35.156250
1835,-35.156250
1836,-35.156250
1837,-35.156250
1838,-35.156250
1839,-35.156250
1840,-35.156250
1841,-35.156250
1842,-35.156250
1843,-35.156250
1844,-35.156250
1845,-35.156250
1846,-35.156250
1847,-35.156250
1848,-35.156250
1849,-35.156250
1850,-35.156250
1851,-35.156250
1852,-35.156250
1853,-35.156250
1854,-35.156250
1855,-35.156250
1856,-35.156250
1857,-35.156250
1858,-35.156250
1859,-35.156250
1860,-35.156250
1861,-35.156250
1862,-35.156250
1863,-35.156250
1864,-35.156250
1865,-35.156250
1866,-35.156250
1867,-35.156250
1868,-35.156250
1869,-35.156250
1870,-35.156250
1871,-35.156250
1872,-35.156250
1873,-35.156250
1874,-35.156250
1875,-35.156250
1876,-35.156250
1877,-35.156250
1878,-35.156250
1879,-35.156250
1880,-35.156250
1881,-35.156250
1882,-35.156250
1883,-35.156250
1884,-35.156250
1885,-35.156250
1886,-35.156250
1887,-35.156250
1888,-35.156250
1889,-35.156250
1890,-35.156250
1891,-35.156250
1892,-35.156250
1893,-35.156250
1894,-35.156250
1895,-35.156250
1896,-35.156250
1897,-35.156250
1898,-35.156250
1899,-35.156250
1900,-35.156250
1901,-35.156250
1902,-35.156250
1903,-35.156250
1904,-35.156250
1905,-35.156250
1906,-35.156250
1907,-35.156250
1908,-35.156250
1909,-35.156250
1910,-35.156250
1911,-35.156250
1912,-35.156250
1913,-35.156250
1914,-35.156250
1915,-35.156250
1916,-35.156250
1917,-35.156250
1918,-35.156250
1919,-35.156250
1920,-35.156250
1921,-31.250000
1922,-31.250000
1923,-35.156250
1924,-31.250000
1925,-35.156250
1926,-31.250000
1927,-31.250000
1928,-31.250000
1929,-31.250000
1930,-31.250000
1931,-31.250000
1932,-31.250000
1933,-31.250000
1934,-35.156250
1935,-31.250000
1936,-31.250000
1937,-31.250000
1938,-31.250000
1939,-31.250000
1940,-31.250000
1941,-31.250000
1942,-31.250000
1943,-31.250000
1944,-31.250000
1945,-31.250000
1946,-31.250000
1947,-31.250000
1948,-31.250000
1949,-31.250000
1950,-31.250000
1951,-31.250000
1952,-31.250000
1953,-31.250000
1954,-31.250000
1955,-31.250000
1956,-31.250000
1957,-31.250000
1958,-31.250000
1959,-31.250000
1960,-31.250000
1961,-31.250000
1962,-27.343750
1963,-31.250000
1964,-31.250000
1965,-31.250000
1966,-31.250000
1967,-31.250000
1968,-27.343750
1969,-27.343750
1970,-27.343750
1971,-27.343750
1972,-27.343750
1973,-27.343750
1974,-27.343750
1975,-27.343750
1976,-27.343750
1977,-27.343750
1978,-27.343750
1979,-27.343750
1980,-27.343750
1981,-27.343750
1982,-27.343750
1983,-27.343750
1984,-27.343750
1985,-27.343750
1986,-27.343750
1987,-27.343750
1988,-27.343750
1989,-27.343750
1990,-27.343750
1991,-27.343750
1992,-23.437500
1993,-27.343750
1994,-27.343750
1995,-23.437500
1996,-27.343750
1997,-23.437500
1998,-23.437500
1999,-23.437500
2000,-23.437500
2001,-23.437500
2002,-23.437500
2003,-23.437500
2004,-23.437500
2005,-23.437500
2006,-23.437500
2007,-23.437500
2008,-23.437500
2009,-23.437500
2010,-23.437500
2011,-23.437500
2012,-23.437500
2013,-23.437500
2014,-23.437500
2015,-23.437500
2016,-23.437500
2017,-23.437500
2018,-23.437500
2019,-23.437500
2020,-23.437500
2021,-23.437500
2022,-23.437500
2023,-19.531250
2024,-23.437500
2025,-23.437500
2026,-19.531250
2027,-19.531250
2028,-19.531250
2029,-19.531250
2030,-19.531250
2031,-19.531250
2032,-19.531250
2033,-19.531250
2034,-19.531250
2035,-19.531250
2036,-19.531250
2037,-19.531250
2038,-19.531250
2039,-19.531250
2040,-19.531250
2041,-19.531250
2042,-19.531250
2043,-19.531250
2044,-19.531250
2045,-19.531250
2046,-19.531250
2047,-19.531250
2048,-19.531250
2049,-15.625000
2050,-19.531250
2051,-15.625000
2052,-15.625000
2053,-19.531250
2054,-19.531250
2055,-15.625000
2056,-15.625000
2057,-15.625000
2058,-15.625000
2059,-15.625000
2060,-15.625000
2061,-15.625000
2062,-15.625000
2063,-15.625000
2064,-15.625000
2065,-15.625000
2066,-15.625000
2067,-15.625000
2068,-15.625000
2069,-15.625000
2070,-15.625000
2071,-15.625000
2072,-15.625000
2073,-15.625000
2074,-15.625000
2075,-15.625000
2076,-15.625000
2077,-11.718750
2078,-11.718750
2079,-11.718750
2080,-11.718750
2081,-11.718750
2082,-11.718750
2083,-11.718750
2084,-11.718750
2085,-11.718750
2086,-11.718750
2087,-11.718750
2088,-11.718750
2089,-11.718750
2090,-11.718750
2091,-11.718750
2092,-11.718750
2093,-11.718750
2094,-11.718750
2095,-11.718750
2096,-11.718750
2097,-11.718750
2098,-11.718750
2099,-11.718750
2100,-11.718750
2101,-11.718750
2102,-7.812500
2103,-11.718750
2104,-11.718750
2105,-7.812500
2106,-7.812500
2107,-7.812500
2108,-7.812500
2109,-7.812500
2110,-7.812500
2111,-7.812500
2112,-7.812500
2113,-7.812500
2114,-7.812500
2115,-7.812500
2116,-7.812500
2117,-7.812500
2118,-7.812500
2119,-7.812500
2120,-7.812500
2121,-7.812500
2122,-7.812500
2123,-7.812500
2124,-7.812500
2125,-7.812500
2126,-7.812500
2127,-3.906250
2128,-3.906250
2129,-3.906250
2130,-3.906250
2131,-3.906250
2132,-3.906250
2133,-3.906250
2134,-3.906250
2135,-3.906250
2136,-3.906250
2137,-3.906250
2138,-3.906250
2139,-3.906250
2140,-3.906250
2141,-3.906250
2142,-3.906250
2143,-3.906250
2144,-3.906250
2145,-3.906250
2146,-3.906250
2147,-3.906250
2148,-3.906250
2149,-3.906250
2150,-3.906250
2151,-3.906250
2152,-3.906250
2153,-3.906250
2154,-3.906250
2155,-3.906250
2156,-3.906250
2157,0.000000
2158,0.000000
2159,0.000000
2160,0.000000
2161,0.000000
2162,-3.906250
2163,0.000000
2164,0.000000
2165,0.000000
2166,0.000000
2167,0.000000
2168,0.000000
2169,0.000000
2170,0.000000
2171,0.000000
2172,0.000000
2173,0.000000
2174,0.000000
2175,0.000000
2176,0.000000
2177,0.000000
2178,0.000000
2179,0.000000
2180,0.000000
2181,0.000000
2182,0.000000
2183,0.000000
2184,0.000000
2185,0.000000
2186,0.000000
2187,3.906250
2188,3.906250
2189,3.906250
2190,0.000000
2191,3.906250
2192,0.000000
2193,3.906250
2194,3.906250
2195,3.906250
2196,3.906250
2197,3.906250
2198,3.906250
2199,3.906250
2200,3.906250
2201,3.906250
2202,3.906250
2203,3.906250
2204,3.906250
2205,3.906250
2206,3.906250
2207,3.906250
2208,3.906250
2209,3.906250
2210,3.906250
2211,3.906250
2212,3.906250
2213,3.906250
2214,3.906250
2215,3.906250
2216,3.906250
2217,3.906250
2218,3.906250
2219,3.906250
2220,3.906250
2221,3.906250
2222,3.906250
2223,3.906250
2224,3.906250
2225,7.812500
2226,3.906250
2227,3.906250
2228,3.906250
2229,3.906250
2230,7.812500
2231,3.906250
2232,3.906250
2233,7.812500
2234,7.812500
2235,7.812500
2236,3.906250
2237,7.812500
2238,7.812500
2239,7.812500
2240,7.812500
2241,7.812500
2242,7.812500
2243,7.812500
2244,7.812500
2245,7.812500
2246,7.812500
2247,7.812500
2248,7.812500
2249,7.812500
2250,7.812500
2251,7.812500
2252,7.812500
2253,7.812500
2254,7.812500
2255,7.812500
2256,7.812500
2257,7.812500
2258,7.812500
2259,7.812500
2260,7.812500
2261,7.812500
2262,7.812500
2263,7.812500
2264,7.812500
2265,7.812500
2266,7.812500
2267,7.812500
2268,7.812500
2269,7.812500
2270,7.812500
2271,7.812500
2272,7.812500
2273,7.812500
2274,7.812500
2275,7.812500
2276,7.812500
2277,7.812500
2278,7.812500
2279,7.812500
2280,7.812500
2281,7.812500
2282,7.812500
2283,7.812500
2284,7.812500
2285,7.812500
2286,7.812500
2287,7.812500
2288,7.812500
2289,7.812500
2290,7.812500
2291,7.812500
2292,11.718750
2293,7.812500
2294,7.812500
2295,7.812500
2296,7.812500
2297,11.718750
2298,7.812500
2299,7.812500
2300,7.812500
2301,7.812500
2302,7.812500
2303,11.718750
2304,7.812500
2305,7.812500
2306,7.812500
2307,11.718750
2308,7.812500
2309,11.718750
2310,11.718750
2311,7.812500
2312,11.718750
2313,7.812500
2314,7.812500
2315,11.718750
2316,11.718750
2317,11.718750
2318,11.718750
2319,11.718750
2320,7.812500
2321,7.812500
2322,7.812500
2323,7.812500
2324,11.718750
2325,11.718750
2326,11.718750
2327,11.718750
2328,11.718750
2329,7.812500
2330,7.812500
2331,11.718750
2332,11.718750
2333,11.718750
2334,11.718750
2335,11.718750
2336,11.718750
2337,11.718750
2338,11.718750
2339,7.812500
2340,11.718750
2341,11.718750
2342,11.718750
2343,7.812500
2344,11.718750
2345,11.718750
2346,11.718750
2347,11.718750
2348,11.718750
2349,7.812500
2350,7.812500
2351,7.812500
2352,7.812500
2353,7.812500
2354,11.718750
2355,11.718750
2356,11.718750
2357,11.718750
2358,7.812500
2359,7.812500
2360,7.812500
2361,7.812500
2362,7.812500
2363,11.718750
2364,7.812500
2365,7.812500
2366,7.812500
2367,11.718750
2368,7.812500
2369,7.812500
2370,7.812500
2371,7.812500
2372,7.812500
2373,11.718750
2374,7.812500
2375,7.812500
2376,7.812500
2377,7.812500
2378,7.812500
2379,7.812500
2380,7.812500
2381,7.812500
2382,7.812500
2383,7.812500
2384,7.812500
2385,7.812500
2386,7.812500
2387,7.812500
2388,7.812500
2389,7.812500
2390,7.812500
2391,7.812500
2392,7.812500
2393,7.812500
2394,7.812500
2395,7.812500
2396,7.812500
2397,7.812500
2398,7.812500
2399,7.812500
2400,7.812500
2401,7.812500
2402,7.812500
2403,7.812500
2404,7.812500
2405,7.812500
2406,7.812500
2407,7.812500
2408,7.812500
2409,7.812500
2410,7.812500
2411,7.812500
2412,7.812500
2413,7.812500
2414,7.812500
2415,7.812500
2416,7.812500
2417,7.812500
2418,7.812500
2419,7.812500
2420,7.812500
2421,7.812500
2422,7.812500
2423,7.812500
2424,7.812500
2425,7.812500
2426,7.812500
2427,7.812500
2428,3.906250
2429,7.812500
2430,3.906250
2431,7.812500
2432,7.812500
2433,7.812500
2434,7.812500
2435,3.906250
2436,7.812500
2437,3.906250
2438,3.906250
2439,3.906250
2440,3.906250
2441,3.906250
2442,3.906250
2443,3.906250
2444,3.906250
2445,7.812500
2446,3.906250
2447,3.906250
2448,3.906250
2449,3.906250
2450,3.906250
2451,3.906250
2452,3.906250
2453,3.906250
2454,3.906250
2455,3.906250
2456,3.906250
2457,3.906250
2458,3.906250
2459,3.906250
2460,3.906250
2461,3.906250
2462,3.906250
2463,3.906250
2464,3.906250
2465,3.906250
2466,3.906250
2467,3.906250
2468,3.906250
2469,3.906250
2470,3.906250
2471,3.906250
2472,3.906250
2473,3.906250
2474,3.906250
2475,3.906250
2476,0.000000
2477,0.000000
2478,0.000000
2479,0.000000
2480,0.000000
2481,0.000000
2482,3.906250
2483,0.000000
2484,0.000000
2485,0.000000
2486,0.000000
2487,0.000000
2488,0.000000
2489,0.000000
2490,0.000000
2491,0.000000
2492,0.000000
2493,0.000000
2494,0.000000
2495,0.000000
2496,0.000000
2497,0.000000
2498,0.000000
2499,0.000000
2500,0.000000
2501,0.000000
2502,0.000000
2503,0.000000
2504,0.000000
2505,0.000000
2506,0.000000
2507,0.000000
2508,-3.906250
2509,0.000000
2510,0.000000
2511,0.000000
2512,0.000000
2513,0.000000
2514,0.000000
2515,0.000000
2516,0.000000
2517,-3.906250
2518,-3.906250
2519,-3.906250
2520,-3.906250
2521,-3.906250
2522,-3.906250
2523,-3.906250
2524,-3.906250
2525,-3.906250
2526,-3.906250
2527,-3.906250
2528,-3.906250
2529,-3.906250
2530,-3.906250
2531,-3.906250
2532,-3.906250
2533,-3.906250
2534,-3.906250
2535,-3.906250
2536,-3.906250
2537,-3.906250
2538,-3.906250
2539,-3.906250
2540,-3.906250
2541,-3.906250
2542,-7.812500
2543,-3.906250
2544,-7.812500
2545,-3.906250
2546,-7.812500
2547,-7.812500
2548,-7.812500
2549,-7.812500
2550,-7.812500
2551,-7.812500
2552,-7.812500
2553,-7.812500
2554,-7.812500
2555,-7.812500
2556,-7.812500
2557,-7.812500
2558,-7.812500
2559,-7.812500
2560,-7.812500
2561,-7.812500
2562,-7.812500
2563,-7.812500
2564,-7.812500
2565,-7.812500
2566,-7.812500
2567,-7.812500
2568,-7.812500
2569,-7.812500
2570,-7.812500
2571,-7.812500
2572,-11.718750
2573,-7.812500
2574,-11.718750
2575,-11.718750
2576,-7.812500
2577,-11.718750
2578,-11.718750
2579,-11.718750
2580,-11.718750
2581,-11.718750
2582,-11.718750
2583,-11.718750
2584,-11.718750
2585,-11.718750
2586,-11.718750
2587,-11.718750
2588,-11.718750
2589,-11.718750
2590,-11.718750
2591,-11.718750
2592,-11.718750
2593,-11.718750
2594,-11.718750
2595,-11.718750
2596,-11.718750
2597,-11.718750
2598,-11.718750
2599,-11.718750
2600,-15.625000
2601,-15.625000
2602,-15.625000
2603,-15.625000
2604,-15.625000
2605,-15.625000
2606,-15.625000
2607,-15.625000
2608,-15.625000
2609,-15.625000
2610,-15.625000
2611,-15.625000
2612,-15.625000
2613,-15.625000
2614,-15.625000
2615,-15.625000
2616,-15.625000
2617,-15.625000
2618,-15.625000
2619,-15.625000
2620,-15.625000
2621,-15.625000
2622,-15.625000
2623,-15.625000
2624,-15.625000
2625,-15.625000
2626,-15.625000
2627,-19.531250
2628,-19.531250
2629,-19.531250
2630,-19.531250
2631,-19.531250
2632,-19.531250
2633,-19.531250
2634,-19.531250
2635,-19.531250
2636,-19.531250
2637,-19.531250
2638,-19.531250
2639,-19.531250
2640,-19.531250
2641,-19.531250
2642,-19.531250
2643,-19.531250
2644,-19.531250
2645,-19.531250
2646,-19.531250
2647,-19.531250
2648,-19.531250
2649,-19.531250
2650,-19.531250
2651,-19.531250
2652,-19.531250
2653,-19.531250
2654,-23.437500
2655,-23.437500
2656,-23.437500
2657,-23.437500
2658,-23.437500
2659,-23.437500
2660,-23.437500
2661,-19.531250
2662,-19.531250
2663,-23.437500
2664,-23.437500
2665,-23.437500
2666,-23.437500
2667,-23.437500
2668,-23.437500
2669,-23.437500
2670,-23.437500
2671,-23.437500
2672,-23.437500
2673,-23.437500
2674,-23.437500
2675,-23.437500
2676,-23.437500
2677,-23.437500
2678,-23.437500
2679,-27.343750
2680,-23.437500
2681,-23.437500
2682,-27.343750
2683,-23.437500
2684,-23.437500
2685,-27.343750
2686,-27.343750
2687,-27.343750
2688,-27.343750
2689,-27.343750
2690,-27.343750
2691,-27.343750
2692,-27.343750
2693,-27.343750
2694,-27.343750
2695,-27.343750
2696,-27.343750
2697,-27.343750
2698,-27.343750
2699,-27.343750
2700,-27.343750
2701,-27.343750
2702,-27.343750
2703,-27.343750
2704,-27.343750
2705,-27.343750
2706,-27.343750
2707,-27.343750
2708,-27.343750
2709,-27.343750
2710,-27.343750
2711,-27.343750
2712,-27.343750
2713,-27.343750
2714,-31.250000
2715,-31.250000
2716,-31.250000
2717,-31.250000
2718,-31.250000
2719,-31.250000
2720,-31.250000
2721,-31.250000
2722,-31.250000
2723,-31.250000
2724,-31.250000
2725,-31.250000
2726,-31.250000
2727,-31.250000
2728,-31.250000
2729,-31.250000
2730,-31.250000
2731,-31.250000
2732,-31.250000
2733,-31.250000
2734,-31.250000
2735,-31.250000
2736,-31.250000
2737,-31.250000
2738,-31.250000
2739,-31.250000
2740,-31.250000
2741,-31.250000
2742,-31.250000
2743,-31.250000
2744,-31.250000
2745,-31.250000
2746,-31.250000
2747,-31.250000
2748,-31.250000
2749,-31.250000
2750,-31.250000
2751,-31.250000
2752,-31.250000
2753,-31.250000
2754,-31.250000
2755,-31.250000
2756,-35.156250
2757,-31.250000
2758,-31.250000
2759,-31.250000
2760,-35.156250
2761,-31.250000
2762,-35.156250
2763,-31.250000
2764,-35.156250
2765,-35.156250
2766,-35.156250
2767,-35.156250
2768,-35.156250
2769,-35.156250
2770,-35.156250
2771,-35.156250
2772,-35.156250
2773,-35.156250
2774,-35.156250
2775,-35.156250
2776,-35.156250
2777,-35.156250
2778,-35.156250
2779,-35.156250
2780,-35.156250
2781,-35.156250
2782,-35.156250
2783,-35.156250
2784,-35.156250
2785,-35.156250
2786,-35.156250
2787,-35.156250
2788,-35.156250
2789,-35.156250
2790,-35.156250
2791,-35.156250
2792,-35.156250
2793,-35.156250
2794,-35.156250
2795,-35.156250
2796,-35.156250
2797,-35.156250
2798,-35.156250
2799,-35.156250
2800,-35.156250
2801,-35.156250
2802,-35.156250
2803,-35.156250
2804,-35.156250
2805,-35.156250
2806,-35.156250
2807,-35.156250
2808,-35.156250
2809,-35.156250
2810,-35.156250
2811,-35.156250
2812,-35.156250
2813,-35.156250
2814,-35.156250
2815,-35.156250
2816,-35.156250
2817,-35.156250
2818,-35.156250
2819,-35.156250
2820,-35.156250
2821,-35.156250
2822,-35.156250
2823,-35.156250
2824,-35.156250
2825,-35.156250
2826,-35.156250
2827,-35.156250
2828,-35.156250
2829,-35.156250
2830,-35.156250
2831,-35.156250
2832,-35.156250
2833,-35.156250
2834,-35.156250
2835,-35.156250
2836,-35.156250
2837,-35.156250
2838,-35.156250
2839,-35.156250
2840,-35.156250
2841,-35.156250
2842,-35.156250
2843,-35.156250
2844,-35.156250
2845,-35.156250
2846,-35.156250
2847,-35.156250
2848,-35.156250
2849,-35.156250
2850,-35.156250
2851,-35.156250
2852,-35.156250
2853,-35.156250
2854,-35.156250
2855,-35.156250
2856,-35.156250
2857,-35.156250
2858,-35.156250
2859,-35.156250
2860,-35.156250
2861,-35.156250
2862,-35.156250
2863,-35.156250
2864,-35.156250
2865,-35.156250
2866,-35.156250
2867,-35.156250
2868,-35.156250
2869,-35.156250
2870,-35.156250
2871,-35.156250
2872,-35.156250
2873,-35.156250
2874,-35.156250
2875,-35.156250
2876,-35.156250
2877,-35.156250
2878,-35.156250
2879,-35.156250
2880,-35.156250
2881,-35.156250
2882,-35.156250
2883,-35.156250
2884,-35.156250
2885,-35.156250
2886,-35.156250
2887,-35.156250
2888,-35.156250
2889,-35.156250
2890,-35.156250
2891,-35.156250
2892,-35.156250
2893,-35.156250
2894,-35.156250
2895,-31.250000
2896,-35.156250
2897,-35.156250
2898,-35.156250
2899,-35.156250
2900,-35.156250
2901,-35.156250
2902,-35.156250
2903,-35.156250
2904,-35.156250
2905,-35.156250
2906,-35.156250
2907,-35.156250
2908,-35.156250
2909,-35.156250
2910,-35.156250
2911,-31.250000
2912,-31.250000
2913,-35.156250
2914,-31.250000
2915,-35.156250
2916,-31.250000
2917,-31.250000
2918,-31.250000
2919,-31.250000
2920,-31.250000
2921,-31.250000
2922,-31.250000
2923,-31.250000
2924,-31.250000
2925,-31.250000
2926,-31.250000
2927,-35.156250
2928,-31.250000
2929,-31.250000
2930,-31.250000
2931,-31.250000
2932,-31.250000
2933,-31.250000
2934,-31.250000
2935,-31.250000
2936,-31.250000
2937,-31.250000
2938,-31.250000
2939,-31.250000
2940,-31.250000
2941,-31.250000
2942,-31.250000
2943,-31.250000
2944,-31.250000
2945,-31.250000
2946,-31.250000
2947,-31.250000
2948,-31.250000
2949,-27.343750
2950,-31.250000
2951,-27.343750
2952,-31.250000
2953,-31.250000
2954,-31.250000
2955,-31.250000
2956,-31.250000
2957,-27.343750
2958,-27.343750
2959,-27.343750
2960,-27.343750
2961,-27.343750
2962,-27.343750
2963,-27.343750
2964,-27.343750
2965,-27.343750
2966,-27.343750
2967,-27.343750
2968,-27.343750
2969,-27.343750
2970,-27.343750
2971,-27.343750
2972,-27.343750
2973,-27.343750
2974,-27.343750
2975,-27.343750
2976,-27.343750
2977,-27.343750
2978,-27.343750
2979,-27.343750
2980,-27.343750
2981,-27.343750
2982,-27.343750
2983,-27.343750
2984,-27.343750
2985,-27.343750
2986,-27.343750
2987,-27.343750
2988,-23.437500
2989,-23.437500
2990,-23.437500
2991,-23.437500
2992,-23.437500
2993,-23.437500
2994,-27.343750
2995,-23.437500
2996,-23.437500
2997,-23.437500
2998,-23.437500
2999,-23.437500
3000,-23.437500
3001,-23.437500
3002,-23.437500
3003,-23.437500
3004,-23.437500
3005,-23.437500
3006,-23.437500
3007,-23.437500
3008,-23.437500
3009,-23.437500
3010,-23.437500
3011,-23.437500
3012,-23.437500
3013,-23.437500
3014,-19.531250
3015,-19.531250
3016,-19.531250
3017,-19.531250
3018,-19.531250
3019,-19.531250
3020,-19.531250
3021,-19.531250
3022,-19.531250
3023,-19.531250
3024,-19.531250
3025,-19.531250
3026,-19.531250
3027,-15.625000
3028,-19.531250
3029,-19.531250
3030,-19.531250
3031,-19.531250
3032,-19.531250
3033,-19.531250
3034,-19.531250
3035,-19.531250
3036,-19.531250
3037,-15.625000
3038,-15.625000
3039,-15.625000
3040,-19.531250
3041,-15.625000
3042,-15.625000
3043,-15.625000
3044,-15.625000
3045,-15.625000
3046,-15.625000
3047,-15.625000
3048,-15.625000
3049,-15.625000
3050,-15.625000
3051,-15.625000
3052,-15.625000
3053,-15.625000
3054,-15.625000
3055,-15.625000
3056,-15.625000
3057,-15.625000
3058,-15.625000
3059,-15.625000
3060,-15.625000
3061,-15.625000
3062,-15.625000
3063,-15.625000
3064,-15.625000
3065,-11.718750
3066,-11.718750
3067,-11.718750
3068,-11.718750
3069,-11.718750
3070,-11.718750
3071,-11.718750
3072,-11.718750
3073,-11.718750
3074,-11.718750
3075,-11.718750
3076,-11.718750
3077,-11.718750
3078,-11.718750
3079,-11.718750
3080,-11.718750
3081,-11.718750
3082,-11.718750
3083,-11.718750
3084,-11.718750
3085,-11.718750
3086,-11.718750
3087,-11.718750
3088,-11.718750
3089,-11.718750
3090,-11.718750
3091,-11.718750
3092,-11.718750
3093,-11.718750
3094,-7.812500
3095,-7.812500
3096,-7.812500
3097,-7.812500
3098,-7.812500
3099,-7.812500
3100,-7.812500
3101,-7.812500
3102,-7.812500
3103,-7.812500
3104,-7.812500
3105,-7.812500
3106,-7.812500
3107,-7.812500
3108,-7.812500
3109,-7.812500
3110,-7.812500
3111,-7.812500
3112,-7.812500
3113,-7.812500
3114,-7.812500
3115,-7.812500
3116,-7.812500
3117,-7.812500
3118,-3.906250
3119,-7.812500
3120,-7.812500
3121,-7.812500
3122,-7.812500
3123,-3.906250
3124,-3.906250
3125,-3.906250
3126,-3.906250
3127,-3.906250
3128,-3.906250
3129,-3.906250
3130,-3.906250
3131,-3.906250
3132,-3.906250
3133,-3.906250
3134,-3.906250
3135,-3.906250
3136,-3.906250
3137,-3.906250
3138,-3.906250
3139,-3.906250
3140,-3.906250
3141,-3.906250
3142,-3.906250
3143,-3.906250
3144,-3.906250
3145,-3.906250
3146,-3.906250
3147,0.000000
3148,0.000000
3149,0.000000
3150,-3.906250
3151,-3.906250
3152,-3.906250
3153,0.000000
3154,0.000000
3155,0.000000
3156,0.000000
3157,0.000000
3158,0.000000
3159,0.000000
3160,0.000000
3161,-3.906250
3162,0.000000
3163,0.000000
3164,0.000000
3165,0.000000
3166,0.000000
3167,0.000000
3168,0.000000
3169,0.000000
3170,0.000000
3171,0.000000
3172,0.000000
3173,0.000000
3174,0.000000
3175,0.000000
3176,0.000000
3177,0.000000
3178,0.000000
3179,0.000000
3180,0.000000
3181,0.000000
3182,0.000000
3183,3.906250
3184,3.906250
3185,3.906250
3186,3.906250
3187,3.906250
3188,3.906250
3189,3.906250
3190,3.906250
3191,3.906250
3192,3.906250
3193,3.906250
3194,3.906250
3195,3.906250
3196,3.906250
3197,3.906250
3198,3.906250
3199,3.906250
3200,3.906250
3201,3.906250
3202,3.906250
3203,3.906250
3204,3.906250
3205,3.906250
3206,3.906250
3207,3.906250
3208,3.906250
3209,3.906250
3210,3.906250
3211,3.906250
3212,3.906250
3213,3.906250
3214,3.906250
3215,3.906250
3216,7.812500
3217,3.906250
3218,3.906250
3219,7.812500
3220,3.906250
3221,3.906250
3222,7.812500
3223,7.812500
3224,7.812500
3225,7.812500
3226,7.812500
3227,7.812500
3228,7.812500
3229,7.812500
3230,7.812500
3231,7.812500
3232,7.812500
3233,7.812500
3234,7.812500
3235,7.812500
3236,7.812500
3237,7.812500
3238,7.812500
3239,7.812500
3240,7.812500
3241,7.812500
3242,7.812500
3243,7.812500
3244,7.812500
3245,7.812500
3246,7.812500
3247,7.812500
3248,7.812500
3249,7.812500
3250,7.812500
3251,7.812500
3252,7.812500
3253,7.812500
3254,7.812500
3255,7.812500
3256,7.812500
3257,7.812500
3258,7.812500
3259,7.812500
3260,7.812500
3261,7.812500
3262,7.812500
3263,7.812500
3264,7.812500
3265,7.812500
3266,7.812500
3267,7.812500
3268,7.812500
3269,7.812500
3270,7.812500
3271,7.812500
3272,7.812500
3273,7.812500
3274,7.812500
3275,7.812500
3276,11.718750
3277,7.812500
3278,7.812500
3279,7.812500
3280,7.812500
3281,7.812500
3282,7.812500
3283,11.718750
3284,11.718750
3285,11.718750
3286,11.718750
3287,7.812500
3288,7.812500
3289,11.718750
3290,7.812500
3291,11.718750
3292,7.812500
3293,7.812500
3294,11.718750
3295,11.718750
3296,11.718750
3297,11.718750
3298,11.718750
3299,7.812500
3300,7.812500
3301,7.812500
3302,11.718750
3303,11.718750
3304,11.718750
3305,11.718750
3306,11.718750
3307,11.718750
3308,11.718750
3309,11.718750
3310,11.718750
3311,11.718750
3312,11.718750
3313,11.718750
3314,11.718750
3315,11.718750
3316,11.718750
3317,11.718750
3318,11.718750
3319,11.718750
3320,11.718750
3321,11.718750
3322,11.718750
3323,11.718750
3324,11.718750
3325,11.718750
3326,11.718750
3327,11.718750
3328,11.718750
3329,7.812500
3330,11.718750
3331,11.718750
3332,11.718750
3333,11.718750
3334,11.718750
3335,11.718750
3336,11.718750
3337,7.812500
3338,11.718750
3339,11.718750
3340,11.718750
3341,11.718750
3342,11.718750
3343,11.718750
3344,11.718750
3345,11.718750
3346,11.718750
3347,11.718750
3348,11.718750
3349,11.718750
3350,11.718750
3351,11.718750
3352,7.812500
3353,11.718750
3354,7.812500
3355,11.718750
3356,7.812500
3357,11.718750
3358,7.812500
3359,11.718750
3360,7.812500
3361,7.812500
3362,7.812500
3363,7.812500
3364,7.812500
3365,7.812500
3366,7.812500
3367,7.812500
3368,7.812500
3369,7.812500
3370,7.812500
3371,7.812500
3372,7.812500
3373,7.812500
3374,7.812500
3375,7.812500
3376,7.812500
3377,7.812500
3378,7.812500
3379,7.812500
3380,7.812500
3381,7.812500
3382,7.812500
3383,7.812500
3384,7.812500
3385,7.812500
3386,7.812500
3387,7.812500
3388,7.812500
3389,7.812500
3390,7.812500
3391,7.812500
3392,7.812500
3393,7.812500
3394,7.812500
3395,7.812500
3396,7.812500
3397,7.812500
3398,7.812500
3399,7.812500
3400,7.812500
3401,7.812500
3402,7.812500
3403,7.812500
3404,7.812500
3405,7.812500
3406,7.812500
3407,7.812500
3408,7.812500
3409,7.812500
3410,7.812500
3411,7.812500
3412,7.812500
3413,7.812500
3414,7.812500
3415,7.812500
3416,7.812500
3417,7.812500
3418,7.812500
3419,3.906250
3420,7.812500
3421,7.812500
3422,7.812500
3423,7.812500
3424,7.812500
3425,7.812500
3426,7.812500
3427,7.812500
3428,3.906250
3429,3.906250
3430,3.906250
3431,7.812500
3432,7.812500
3433,7.812500
3434,3.906250
3435,3.906250
3436,3.906250
3437,3.906250
3438,3.906250
3439,3.906250
3440,3.906250
3441,3.906250
3442,3.906250
3443,3.906250
3444,3.906250
3445,3.906250
3446,3.906250
3447,3.906250
3448,3.906250
3449,3.906250
3450,3.906250
3451,3.906250
3452,3.906250
3453,3.906250
3454,3.906250
3455,3.906250
3456,3.906250
3457,3.906250
3458,3.906250
3459,3.906250
3460,3.906250
3461,3.906250
3462,3.906250
3463,3.906250
3464,3.906250
3465,3.906250
3466,3.906250
3467,0.000000
3468,0.000000
3469,0.000000
3470,3.906250
3471,0.000000
3472,0.000000
3473,0.000000
3474,0.000000
3475,0.000000
3476,0.000000
3477,0.000000
3478,0.000000
3479,0.000000
3480,0.000000
3481,0.000000
3482,0.000000
3483,0.000000
3484,0.000000
3485,0.000000
3486,0.000000
3487,0.000000
3488,0.000000
3489,0.000000
3490,0.000000
3491,0.000000
3492,0.000000
3493,0.000000
3494,0.000000
3495,0.000000
3496,-3.906250
3497,0.000000
3498,0.000000
3499,0.000000
3500,-3.906250
3501,0.000000
3502,-3.906250
3503,-3.906250
3504,-3.906250
3505,0.000000
3506,-3.906250
3507,-3.906250
3508,-3.906250
3509,-3.906250
3510,-3.906250
3511,-3.906250
3512,-3.906250
3513,-3.906250
3514,-3.906250
3515,-3.906250
3516,-3.906250
3517,-3.906250
3518,-3.906250
3519,-3.906250
3520,-3.906250
3521,-3.906250
3522,-3.906250
3523,-3.906250
3524,-3.906250
3525,-3.906250
3526,-3.906250
3527,-3.906250
3528,-3.906250
3529,-3.906250
3530,-7.812500
3531,-7.812500
3532,-3.906250
3533,-7.812500
3534,-3.906250
3535,-7.812500
3536,-7.812500
3537,-7.812500
3538,-7.812500
3539,-7.812500
3540,-7.812500
3541,-7.812500
3542,-7.812500
3543,-7.812500
3544,-7.812500
3545,-7.812500
3546,-7.812500
3547,-7.812500
3548,-7.812500
3549,-7.812500
3550,-7.812500
3551,-7.812500
3552,-7.812500
3553,-7.812500
3554,-7.812500
3555,-7.812500
3556,-7.812500
3557,-7.812500
3558,-7.812500
3559,-11.718750
3560,-7.812500
3561,-7.812500
3562,-7.812500
3563,-7.812500
3564,-11.718750
3565,-7.812500
3566,-11.718750
3567,-11.718750
3568,-11.718750
3569,-11.718750
3570,-11.718750
3571,-11.718750
3572,-11.718750
3573,-11.718750
3574,-11.718750
3575,-11.718750
3576,-11.718750
3577,-11.718750
3578,-11.718750
3579,-11.718750
3580,-11.718750
3581,-11.718750
3582,-11.718750
3583,-11.718750
3584,-11.718750
3585,-11.718750
3586,-15.625000
3587,-15.625000
3588,-15.625000
3589,-11.718750
3590,-11.718750
3591,-15.625000
3592,-15.625000
3593,-15.625000
3594,-15.625000
3595,-15.625000
3596,-15.625000
3597,-15.625000
3598,-15.625000
3599,-15.625000
3600,-15.625000
3601,-15.625000
3602,-15.625000
3603,-15.625000
3604,-15.625000
3605,-15.625000
3606,-15.625000
3607,-15.625000
3608,-15.625000
3609,-15.625000
3610,-15.625000
3611,-15.625000
3612,-15.625000
3613,-19.531250
3614,-19.531250
3615,-19.531250
3616,-19.531250
3617,-19.531250
3618,-19.531250
3619,-19.531250
3620,-19.531250
3621,-19.531250
3622,-19.531250
3623,-19.531250
3624,-19.531250
3625,-19.531250
3626,-19.531250
3627,-19.531250
3628,-19.531250
3629,-19.531250
3630,-19.531250
3631,-19.531250
3632,-19.531250
3633,-19.531250
3634,-19.531250
3635,-19.531250
3636,-19.531250
3637,-19.531250
3638,-19.531250
3639,-19.531250
3640,-23.437500
3641,-19.531250
3642,-19.531250
3643,-19.531250
3644,-23.437500
3645,-19.531250
3646,-23.437500
3647,-23.437500
3648,-23.437500
3649,-23.437500
3650,-23.437500
3651,-23.437500
3652,-23.437500
3653,-23.437500
3654,-23.437500
3655,-23.437500
3656,-23.437500
3657,-23.437500
3658,-23.437500
3659,-23.437500
3660,-23.437500
3661,-23.437500
3662,-23.437500
3663,-23.437500
3664,-23.437500
3665,-23.437500
3666,-23.437500
3667,-23.437500
3668,-23.437500
3669,-23.437500
3670,-23.437500
3671,-23.437500
3672,-23.437500
3673,-23.437500
3674,-23.437500
3675,-23.437500
3676,-27.343750
3677,-27.343750
3678,-27.343750
3679,-27.343750
3680,-27.343750
3681,-27.343750
3682,-27.343750
3683,-23.437500
3684,-27.343750
3685,-27.343750
3686,-27.343750
3687,-27.343750
3688,-27.343750
3689,-27.343750
3690,-27.343750
3691,-27.343750
3692,-27.343750
3693,-27.343750
3694,-27.343750
3695,-27.343750
3696,-27.343750
3697,-27.343750
3698,-27.343750
3699,-27.343750
3700,-27.343750
3701,-27.343750
3702,-27.343750
3703,-27.343750
3704,-27.343750
3705,-27.343750
3706,-27.343750
3707,-27.343750
3708,-31.250000
3709,-27.343750
3710,-27.343750
3711,-27.343750
3712,-31.250000
3713,-31.250000
3714,-31.250000
3715,-27.343750
3716,-31.250000
3717,-31.250000
3718,-31.250000
3719,-31.250000
3720,-31.250000
3721,-31.250000
3722,-31.250000
3723,-31.250000
3724,-31.250000
3725,-31.250000
3726,-31.250000
3727,-31.250000
3728,-31.250000
3729,-31.250000
3730,-31.250000
3731,-31.250000
3732,-31.250000
3733,-31.250000
3734,-31.250000
3735,-31.250000
3736,-31.250000
3737,-31.250000
3738,-31.250000
3739,-31.250000
3740,-31.250000
3741,-31.250000
3742,-31.250000
3743,-31.250000
3744,-31.250000
3745,-31.250000
3746,-31.250000
3747,-31.250000
3748,-35.156250
3749,-31.250000
3750,-31.250000
3751,-31.250000
3752,-35.156250
3753,-31.250000
3754,-35.156250
3755,-35.156250
3756,-35.156250
3757,-35.156250
3758,-35.156250
3759,-35.156250
3760,-35.156250
3761,-35.156250
3762,-35.156250
3763,-35.156250
3764,-35.156250
3765,-35.156250
3766,-35.156250
3767,-35.156250
3768,-35.156250
3769,-35.156250
3770,-35.156250
3771,-35.156250
3772,-35.156250
3773,-35.156250
3774,-35.156250
3775,-35.156250
3776,-35.156250
3777,-35.156250
3778,-35.156250
3779,-35.156250
3780,-35.156250
3781,-35.156250
3782,-35.156250
3783,-35.156250
3784,-35.156250
3785,-35.156250
3786,-35.156250
3787,-35.156250
3788,-35.156250
3789,-35.156250
3790,-35.156250
3791,-35.156250
3792,-35.156250
3793,-35.156250
3794,-35.156250
3795,-35.156250
3796,-35.156250
3797,-35.156250
3798,-35.156250
3799,-35.156250
3800,-35.156250
3801,-35.156250
3802,-35.156250
3803,-35.156250
3804,-35.156250
3805,-35.156250
3806,-35.156250
3807,-35.156250
3808,-35.156250
3809,-35.156250
3810,-35.156250
3811,-35.156250
3812,-35.156250
3813,-35.156250
3814,-35.156250
3815,-35.156250
3816,-35.156250
3817,-35.156250
3818,-35.156250
3819,-35.156250
3820,-35.156250
3821,-35.156250
3822,-35.156250
3823,-35.156250
3824,-35.156250
3825,-35.156250
3826,-35.156250
3827,-35.156250
3828,-35.156250
3829,-35.156250
3830,-35.156250
3831,-35.156250
3832,-35.156250
3833,-35.156250
3834,-35.156250
3835,-35.156250
3836,-35.156250
3837,-35.156250
3838,-35.156250
3839,-35.156250
3840,-35.156250
3841,-35.156250
3842,-35.156250
3843,-35.156250
3844,-35.156250
3845,-35.156250
3846,-35.156250
3847,-35.156250
3848,-35.156250
3849,-35.156250
3850,-35.156250
3851,-35.156250
3852,-35.156250
3853,-35.156250
3854,-35.156250
3855,-35.156250
3856,-35.156250
3857,-35.156250
3858,-35.156250
3859,-35.156250
3860,-35.156250
3861,-35.156250
3862,-35.156250
3863,-35.156250
3864,-35.156250
3865,-35.156250
3866,-35.156250
3867,-35.156250
3868,-35.156250
3869,-35.156250
3870,-35.156250
3871,-35.156250
3872,-35.156250
3873,-35.156250
3874,-35.156250
3875,-35.156250
3876,-35.156250
3877,-35.156250
3878,-35.156250
3879,-35.156250
3880,-35.156250
3881,-35.156250
3882,-35.156250
3883,-35.156250
3884,-35.156250
3885,-35.156250
3886,-35.156250
3887,-35.156250
3888,-35.156250
3889,-35.156250
3890,-35.156250
3891,-35.156250
3892,-35.156250
3893,-35.156250
3894,-35.156250
3895,-35.156250
3896,-35.156250
3897,-35.156250
3898,-31.250000
3899,-35.156250
3900,-35.156250
3901,-35.156250
3902,-31.250000
3903,-31.250000
3904,-31.250000
3905,-31.250000
3906,-31.250000
3907,-31.250000
3908,-35.156250
3909,-31.250000
3910,-31.250000
3911,-31.250000
3912,-31.250000
3913,-31.250000
3914,-31.250000
3915,-31.250000
3916,-31.250000
3917,-31.250000
3918,-31.250000
3919,-31.250000
3920,-31.250000
3921,-31.250000
3922,-31.250000
3923,-31.250000
3924,-31.250000
3925,-31.250000
3926,-31.250000
3927,-31.250000
3928,-31.250000
3929,-31.250000
3930,-31.250000
3931,-31.250000
3932,-31.250000
3933,-31.250000
3934,-31.250000
3935,-31.250000
3936,-31.250000
3937,-31.250000
3938,-31.250000
3939,-27.343750
3940,-31.250000
3941,-27.343750
3942,-27.343750
3943,-27.343750
3944,-31.250000
3945,-27.343750
3946,-27.343750
3947,-27.343750
3948,-27.343750
3949,-27.343750
3950,-27.343750
3951,-27.343750
3952,-27.343750
3953,-27.343750
3954,-27.343750
3955,-27.343750
3956,-27.343750
3957,-27.343750
3958,-27.343750
3959,-27.343750
3960,-27.343750
3961,-27.343750
3962,-27.343750
3963,-27.343750
3964,-27.343750
3965,-27.343750
3966,-27.343750
3967,-27.343750
3968,-23.437500
3969,-27.343750
3970,-27.343750
3971,-23.437500
3972,-27.343750
3973,-23.437500
3974,-27.343750
3975,-23.437500
3976,-23.437500
3977,-23.437500
3978,-23.437500
3979,-23.437500
3980,-23.437500
3981,-23.437500
3982,-23.437500
3983,-23.437500
3984,-23.437500
3985,-23.437500
3986,-23.437500
3987,-23.437500
3988,-23.437500
3989,-23.437500
3990,-23.437500
3991,-23.437500
3992,-23.437500
3993,-23.437500
3994,-23.437500
3995,-23.437500
3996,-23.437500
3997,-23.437500
3998,-23.437500
3999,-23.437500
4000,-23.437500
4001,-23.437500
4002,-19.531250
4003,-19.531250
4004,-23.437500
4005,-19.531250
4006,-19.531250
4007,-19.531250
4008,-19.531250
4009,-19.531250
4010,-19.531250
4011,-19.531250
4012,-19.531250
4013,-19.531250
4014,-19.531250
4015,-19.531250
4016,-19.531250
4017,-19.531250
4018,-19.531250
4019,-19.531250
4020,-19.531250
4021,-19.531250
4022,-19.531250
4023,-19.531250
4024,-19.531250
4025,-19.531250
4026,-19.531250
4027,-19.531250
4028,-19.531250
4029,-19.531250
4030,-19.531250
4031,-19.531250
4032,-15.625000
4033,-15.625000
4034,-15.625000
4035,-15.625000
4036,-15.625000
4037,-15.625000
4038,-15.625000
4039,-15.625000
4040,-15.625000
4041,-15.625000
4042,-15.625000
4043,-15.625000
4044,-15.625000
4045,-15.625000
4046,-15.625000
4047,-15.625000
4048,-15.625000
4049,-15.625000
4050,-15.625000
4051,-15.625000
4052,-15.625000
4053,-11.718750
4054,-15.625000
4055,-15.625000
4056,-15.625000
4057,-11.718750
4058,-11.718750
4059,-11.718750
4060,-11.718750
4061,-11.718750
4062,-15.625000
4063,-11.718750
4064,-11.718750
4065,-11.718750
4066,-11.718750
4067,-11.718750
4068,-11.718750
4069,-11.718750
4070,-11.718750
4071,-11.718750
4072,-11.718750
4073,-11.718750
4074,-11.718750
4075,-11.718750
4076,-11.718750
4077,-7.812500
4078,-7.812500
4079,-11.718750
4080,-7.812500
4081,-7.812500
4082,-11.718750
4083,-11.718750
4084,-7.812500
4085,-7.812500
4086,-7.812500
4087,-7.812500
4088,-7.812500
4089,-7.812500
4090,-7.812500
4091,-7.812500
4092,-7.812500
4093,-7.812500
4094,-7.812500
4095,-7.812500
4096,-7.812500
4097,-7.812500
4098,-7.812500
4099,-7.812500
4100,-7.812500
4101,-7.812500
4102,-7.812500
4103,-7.812500
4104,-3.906250
4105,-7.812500
4106,-3.906250
4107,-3.906250
4108,-7.812500
4109,-7.812500
4110,-3.906250
4111,-7.812500
4112,-3.906250
4113,-3.906250
4114,-3.906250
4115,-3.906250
4116,-3.906250
4117,-3.906250
4118,-3.906250
4119,-3.906250
4120,-3.906250
4121,-3.906250
4122,-3.906250
4123,-3.906250
4124,-3.906250
4125,-3.906250
4126,-3.906250
4127,-3.906250
4128,-3.906250
4129,-3.906250
4130,-3.906250
4131,-3.906250
4132,-3.906250
4133,0.000000
4134,0.000000
4135,-3.906250
4136,0.000000
4137,-3.906250
4138,0.000000
4139,0.000000
4140,-3.906250
4141,-3.906250
4142,0.000000
4143,0.000000
4144,0.000000
4145,0.000000
4146,0.000000
4147,0.000000
4148,0.000000
4149,0.000000
4150,0.000000
4151,0.000000
4152,0.000000
4153,0.000000
4154,0.000000
4155,0.000000
4156,0.000000
4157,0.000000
4158,0.000000
4159,0.000000
4160,0.000000
4161,0.000000
4162,0.000000
4163,0.000000
4164,0.000000
4165,3.906250
4166,0.000000
4167,3.906250
4168,0.000000
4169,0.000000
4170,0.000000
4171,3.906250
4172,3.906250
4173,0.000000
4174,0.000000
4175,3.906250
4176,3.906250
4177,3.906250
4178,3.906250
4179,3.906250
4180,3.906250
4181,3.906250
4182,3.906250
4183,3.906250
4184,3.906250
4185,3.906250
4186,3.906250
4187,3.906250
4188,3.906250
4189,3.906250
4190,3.906250
4191,3.906250
4192,3.906250
4193,3.906250
4194,3.906250
4195,3.906250
4196,3.906250
4197,3.906250
4198,3.906250
4199,3.906250
4200,3.906250
4201,3.906250
4202,3.906250
4203,3.906250
4204,3.906250
4205,3.906250
4206,7.812500
4207,3.906250
4208,7.812500
4209,7.812500
4210,3.906250
4211,3.906250
4212,7.812500
4213,7.812500
4214,7.812500
4215,7.812500
4216,7.812500
4217,7.812500
4218,7.812500
4219,7.812500
4220,7.812500
4221,7.812500
4222,7.812500
4223,7.812500
4224,7.812500
4225,7.812500
4226,7.812500
4227,7.812500
4228,7.812500
4229,7.812500
4230,7.812500
4231,7.812500
4232,7.812500
4233,7.812500
4234,7.812500
4235,7.812500
4236,7.812500
4237,7.812500
4238,7.812500
4239,7.812500
4240,7.812500
4241,7.812500
4242,7.812500
4243,7.812500
4244,7.812500
4245,7.812500
4246,7.812500
4247,7.812500
4248,7.812500
4249,7.812500
4250,7.812500
4251,7.812500
4252,7.812500
4253,7.812500
4254,7.812500
4255,7.812500
4256,7.812500
4257,7.812500
4258,7.812500
4259,7.812500
4260,7.812500
4261,7.812500
4262,7.812500
4263,7.812500
4264,7.812500
4265,7.812500
4266,7.812500
4267,7.812500
4268,7.812500
4269,7.812500
4270,7.812500
4271,7.812500
4272,7.812500
4273,11.718750
4274,7.812500
4275,11.718750
4276,7.812500
4277,7.812500
4278,7.812500
4279,7.812500
4280,7.812500
4281,7.812500
4282,7.812500
4283,11.718750
4284,7.812500
4285,7.812500
4286,7.812500
4287,7.812500
4288,7.812500
4289,7.812500
4290,7.812500
4291,11.718750
4292,7.812500
4293,11.718750
4294,11.718750
4295,11.718750
4296,7.812500
4297,7.812500
4298,7.812500
4299,7.812500
4300,7.812500
4301,11.718750
4302,7.812500
4303,11.718750
4304,11.718750
4305,11.718750
4306,7.812500
4307,7.812500
4308,7.812500
4309,7.812500
4310,7.812500
4311,11.718750
4312,11.718750
4313,11.718750
4314,7.812500
4315,11.718750
4316,11.718750
4317,11.718750
4318,11.718750
4319,11.718750
4320,11.718750
4321,11.718750
4322,7.812500
4323,11.718750
4324,11.718750
4325,11.718750
4326,11.718750
4327,7.812500
4328,11.718750
4329,11.718750
4330,7.812500
4331,11.718750
4332,11.718750
4333,11.718750
4334,11.718750
4335,11.718750
4336,11.718750
4337,11.718750
4338,11.718750
4339,7.812500
4340,7.812500
4341,7.812500
4342,7.812500
4343,11.718750
4344,7.812500
4345,7.812500
4346,11.718750
4347,11.718750
4348,7.812500
4349,7.812500
4350,7.812500
4351,7.812500
4352,7.812500
4353,7.812500
4354,7.812500
4355,7.812500
4356,11.718750
4357,7.812500
4358,11.718750
4359,7.812500
4360,7.812500
4361,7.812500
4362,7.812500
4363,7.812500
4364,7.812500
4365,7.812500
4366,11.718750
4367,7.812500
4368,7.812500
4369,7.812500
4370,7.812500
4371,7.812500
4372,7.812500
4373,7.812500
4374,7.812500
4375,7.812500
4376,7.812500
4377,7.812500
4378,7.812500
4379,7.812500
4380,7.812500
4381,7.812500
4382,7.812500
4383,7.812500
4384,7.812500
4385,7.812500
4386,7.812500
4387,7.812500
4388,7.812500
4389,7.812500
4390,7.812500
4391,7.812500
4392,7.812500
4393,7.812500
4394,7.812500
4395,7.812500
4396,7.812500
4397,7.812500
4398,7.812500
4399,7.812500
4400,7.812500
4401,7.812500
4402,7.812500
4403,7.812500
4404,7.812500
4405,7.812500
4406,7.812500
4407,7.812500
4408,7.812500
4409,3.906250
4410,3.906250
4411,7.812500
4412,7.812500
4413,3.906250
4414,7.812500
4415,7.812500
4416,3.906250
4417,3.906250
4418,7.812500
4419,3.906250
4420,3.906250
4421,3.906250
4422,3.906250
4423,3.906250
4424,3.906250
4425,3.906250
4426,3.906250
4427,3.906250
4428,3.906250
4429,3.906250
4430,3.906250
4431,3.906250
4432,3.906250
4433,3.906250
4434,3.906250
4435,3.906250
4436,3.906250
4437,3.906250
4438,3.906250
4439,3.906250
4440,3.906250
4441,3.906250
4442,3.906250
4443,3.906250
4444,3.906250
4445,3.906250
4446,3.906250
4447,3.906250
4448,3.906250
4449,3.906250
4450,3.906250
4451,3.906250
4452,3.906250
4453,3.906250
4454,3.906250
4455,3.906250
4456,0.000000
4457,0.000000
4458,3.906250
4459,0.000000
4460,0.000000
4461,0.000000
4462,3.906250
4463,0.000000
4464,0.000000
4465,0.000000
4466,0.000000
4467,0.000000
4468,0.000000
4469,0.000000
4470,0.000000
4471,0.000000
4472,0.000000
4473,0.000000
4474,0.000000
4475,0.000000
4476,0.000000
4477,0.000000
4478,0.000000
4479,0.000000
4480,0.000000
4481,0.000000
4482,0.000000
4483,0.000000
4484,0.000000
4485,0.000000
4486,0.000000
4487,0.000000
4488,0.000000
4489,0.000000
4490,0.000000
4491,0.000000
4492,0.000000
4493,0.000000
4494,-3.906250
4495,-3.906250
4496,-3.906250
4497,-3.906250
4498,-3.906250
4499,-3.906250
4500,-3.906250
4501,-3.906250
4502,-3.906250
4503,-3.906250
4504,-3.906250
4505,-3.906250
4506,-3.906250
4507,-3.906250
4508,-3.906250
4509,-3.906250
4510,-3.906250
4511,-3.906250
4512,-3.906250
4513,-3.906250
4514,-3.906250
4515,-3.906250
4516,-3.906250
4517,-3.906250
4518,-3.906250
4519,-7.812500
4520,-3.906250
4521,-7.812500
4522,-3.906250
4523,-3.906250
4524,-7.812500
4525,-7.812500
4526,-7.812500
4527,-7.812500
4528,-7.812500
4529,-7.812500
4530,-7.812500
4531,-7.812500
4532,-7.812500
4533,-7.812500
4534,-7.812500
4535,-7.812500
4536,-7.812500
4537,-7.812500
4538,-7.812500
4539,-7.812500
4540,-7.812500
4541,-7.812500
4542,-7.812500
4543,-7.812500
4544,-7.812500
4545,-7.812500
4546,-7.812500
4547,-7.812500
4548,-7.812500
4549,-11.718750
4550,-7.812500
4551,-11.718750
4552,-7.812500
4553,-11.718750
4554,-11.718750
4555,-7.812500
4556,-11.718750
4557,-11.718750
4558,-11.718750
4559,-11.718750
4560,-11.718750
4561,-11.718750
4562,-11.718750
4563,-11.718750
4564,-11.718750
4565,-11.718750
4566,-11.718750
4567,-11.718750
4568,-11.718750
4569,-11.718750
4570,-11.718750
4571,-11.718750
4572,-11.718750
4573,-11.718750
4574,-11.718750
4575,-11.718750
4576,-15.625000
4577,-7.812500
4578,-15.625000
4579,-15.625000
4580,-15.625000
4581,-15.625000
4582,-11.718750
4583,-11.718750
4584,-15.625000
4585,-15.625000
4586,-15.625000
4587,-15.625000
4588,-15.625000
4589,-15.625000
4590,-15.625000
4591,-15.625000
4592,-15.625000
4593,-15.625000
4594,-15.625000
4595,-15.625000
4596,-15.625000
4597,-15.625000
4598,-15.625000
4599,-15.625000
4600,-15.625000
4601,-15.625000
4602,-15.625000
4603,-15.625000
4604,-15.625000
4605,-15.625000
4606,-15.625000
4607,-19.531250
4608,-15.625000
4609,-19.531250
4610,-19.531250
4611,-15.625000
4612,-15.625000
4613,-19.531250
4614,-19.531250
4615,-19.531250
4616,-19.531250
4617,-19.531250
4618,-19.531250
4619,-19.531250
4620,-19.531250
4621,-19.531250
4622,-19.531250
4623,-19.531250
4624,-19.531250
4625,-19.531250
4626,-19.531250
4627,-19.531250
4628,-19.531250
4629,-19.531250
4630,-19.531250
4631,-19.531250
4632,-23.437500
4633,-19.531250
4634,-23.437500
4635,-23.437500
4636,-23.437500
4637,-23.437500
4638,-23.437500
4639,-23.437500
4640,-23.437500
4641,-23.437500
4642,-23.437500
4643,-23.437500
4644,-23.437500
4645,-23.437500
4646,-23.437500
4647,-23.437500
4648,-23.437500
4649,-23.437500
4650,-23.437500
4651,-23.437500
4652,-23.437500
4653,-23.437500
4654,-23.437500
4655,-23.437500
4656,-23.437500
4657,-23.437500
4658,-23.437500
4659,-23.437500
4660,-23.437500
4661,-23.437500
4662,-27.343750
4663,-27.343750
4664,-27.343750
4665,-27.343750
4666,-27.343750
4667,-27.343750
4668,-27.343750
4669,-27.343750
4670,-27.343750
4671,-27.343750
4672,-23.437500
4673,-27.343750
4674,-27.343750
4675,-27.343750
4676,-27.343750
4677,-27.343750
4678,-27.343750
4679,-27.343750
4680,-27.343750
4681,-27.343750
4682,-27.343750
4683,-27.343750
4684,-27.343750
4685,-27.343750
4686,-27.343750
4687,-27.343750
4688,-27.343750
4689,-27.343750
4690,-27.343750
4691,-27.343750
4692,-27.343750
4693,-27.343750
4694,-27.343750
4695,-27.343750
4696,-31.250000
4697,-31.250000
4698,-31.250000
4699,-31.250000
4700,-27.343750
4701,-31.250000
4702,-31.250000
4703,-31.250000
4704,-31.250000
4705,-31.250000
4706,-31.250000
4707,-31.250000
4708,-31.250000
4709,-31.250000
4710,-31.250000
4711,-31.250000
4712,-31.250000
4713,-31.250000
4714,-31.250000
4715,-31.250000
4716,-31.250000
4717,-31.250000
4718,-31.250000
4719,-31.250000
4720,-31.250000
4721,-31.250000
4722,-31.250000
4723,-31.250000
4724,-31.250000
4725,-31.250000
4726,-31.250000
4727,-31.250000
4728,-31.250000
4729,-31.250000
4730,-31.250000
4731,-31.250000
4732,-31.250000
4733,-31.250000
4734,-31.250000
4735,-31.250000
4736,-31.250000
4737,-35.156250
4738,-35.156250
4739,-31.250000
4740,-31.250000
4741,-31.250000
4742,-35.156250
4743,-31.250000
4744,-31.250000
4745,-35.156250
4746,-35.156250
4747,-35.156250
4748,-35.156250
4749,-35.156250
4750,-35.156250
4751,-31.250000
4752,-35.156250
4753,-35.156250
4754,-35.156250
4755,-35.156250
4756,-35.156250
4757,-35.156250
4758,-31.250000
4759,-35.156250
4760,-35.156250
4761,-35.156250
4762,-35.156250
4763,-35.156250
4764,-35.156250
4765,-35.156250
4766,-35.156250
4767,-35.156250
4768,-35.156250
4769,-35.156250
4770,-35.156250
4771,-35.156250
4772,-35.156250
4773,-35.156250
4774,-35.156250
4775,-35.156250
4776,-35.156250
4777,-35.156250
4778,-35.156250
4779,-35.156250
4780,-35.156250
4781,-35.156250
4782,-35.156250
4783,-35.156250
4784,-35.156250
4785,-35.156250
4786,-35.156250
4787,-35.156250
4788,-35.156250
4789,-35.156250
4790,-35.156250
4791,-35.156250
4792,-35.156250
4793,-35.156250
4794,-35.156250
4795,-35.156250
4796,-35.156250
4797,-35.156250
4798,-35.156250
4799,-35.156250
4800,-35.156250
4801,-35.156250
4802,-35.156250
4803,-35.156250
4804,-35.156250
4805,-35.156250
4806,-35.156250
4807,-35.156250
4808,-35.156250
4809,-35.156250
4810,-35.156250
4811,-35.156250
4812,-35.156250
4813,-35.156250
4814,-35.156250
4815,-35.156250
4816,-35.156250
4817,-35.156250
4818,-35.156250
4819,-35.156250
4820,-35.156250
4821,-35.156250
4822,-35.156250
4823,-35.156250
4824,-35.156250
4825,-35.156250
4826,-35.156250
4827,-35.156250
4828,-35.156250
4829,-35.156250
4830,-35.156250
4831,-35.156250
4832,-35.156250
4833,-35.156250
4834,-35.156250
4835,-35.156250
4836,-35.156250
4837,-35.156250
4838,-35.156250
4839,-35.156250
4840,-35.156250
4841,-35.156250
4842,-35.156250
4843,-35.156250
4844,-35.156250
4845,-35.156250
4846,-35.156250
4847,-35.156250
4848,-35.156250
4849,-35.156250
4850,-35.156250
4851,-35.156250
4852,-35.156250
4853,-35.156250
4854,-35.156250
4855,-35.156250
4856,-35.156250
4857,-35.156250
4858,-35.156250
4859,-35.156250
4860,-35.156250
4861,-35.156250
4862,-35.156250
4863,-35.156250
4864,-35.156250
4865,-35.156250
4866,-35.156250
4867,-35.156250
4868,-35.156250
4869,-35.156250
4870,-35.156250
4871,-35.156250
4872,-35.156250
4873,-35.156250
4874,-35.156250
4875,-31.250000
4876,-35.156250
4877,-35.156250
4878,-31.250000
4879,-35.156250
4880,-31.250000
4881,-31.250000
4882,-35.156250
4883,-35.156250
4884,-35.156250
4885,-35.156250
4886,-35.156250
4887,-35.156250
4888,-31.250000
4889,-31.250000
4890,-35.156250
4891,-31.250000
4892,-31.250000
4893,-31.250000
4894,-35.156250
4895,-31.250000
4896,-31.250000
4897,-31.250000
4898,-31.250000
4899,-31.250000
4900,-31.250000
4901,-31.250000
4902,-31.250000
4903,-31.250000
4904,-31.250000
4905,-31.250000
4906,-31.250000
4907,-31.250000
4908,-31.250000
4909,-31.250000
4910,-31.250000
4911,-31.250000
4912,-31.250000
4913,-31.250000
4914,-31.250000
4915,-31.250000
4916,-31.250000
4917,-31.250000
4918,-31.250000
4919,-31.250000
4920,-31.250000
4921,-31.250000
4922,-31.250000
4923,-31.250000
4924,-31.250000
4925,-31.250000
4926,-31.250000
4927,-31.250000
4928,-31.250000
4929,-31.250000
4930,-31.250000
4931,-27.343750
4932,-31.250000
4933,-27.343750
4934,-31.250000
4935,-27.343750
4936,-31.250000
4937,-27.343750
4938,-27.343750
4939,-27.343750
4940,-27.343750
4941,-27.343750
4942,-27.343750
4943,-27.343750
4944,-27.343750
4945,-27.343750
4946,-27.343750
4947,-27.343750
4948,-27.343750
4949,-27.343750
4950,-27.343750
4951,-27.343750
4952,-27.343750
4953,-27.343750
4954,-27.343750
4955,-27.343750
4956,-27.343750
4957,-27.343750
4958,-27.343750
4959,-27.343750
4960,-23.437500
4961,-27.343750
4962,-27.343750
4963,-27.343750
4964,-27.343750
4965,-23.437500
4966,-23.437500
4967,-23.437500
4968,-23.437500
4969,-23.437500
4970,-23.437500
4971,-23.437500
4972,-23.437500
4973,-23.437500
4974,-23.437500
4975,-23.437500
4976,-23.437500
4977,-23.437500
4978,-23.437500
4979,-23.437500
4980,-23.437500
4981,-23.437500
4982,-23.437500
4983,-23.437500
4984,-23.437500
4985,-23.437500
4986,-23.437500
4987,-23.437500
4988,-23.437500
4989,-19.531250
4990,-19.531250
4991,-23.437500
4992,-23.437500
4993,-19.531250
4994,-23.437500
4995,-19.531250
4996,-19.531250
4997,-19.531250
4998,-19.531250
4999,-19.531250
5000,-19.531250
5001,-19.531250
5002,-19.531250
5003,-19.531250
5004,-19.531250
5005,-19.531250
5006,-19.531250
5007,-19.531250
5008,-19.531250
5009,-19.531250
5010,-19.531250
5011,-19.531250
5012,-19.531250
5013,-19.531250
5014,-19.531250
5015,-15.625000
5016,-15.625000
5017,-15.625000
5018,-15.625000
5019,-15.625000
5020,-15.625000
5021,-15.625000
5022,-15.625000
5023,-15.625000
5024,-15.625000
5025,-15.625000
5026,-15.625000
5027,-15.625000
5028,-15.625000
5029,-11.718750
5030,-15.625000
5031,-15.625000
5032,-15.625000
5033,-15.625000
5034,-15.625000
5035,-15.625000
5036,-15.625000
5037,-15.625000
5038,-15.625000
5039,-15.625000
5040,-15.625000
5041,-15.625000
5042,-15.625000
5043,-15.625000
5044,-15.625000
5045,-11.718750
5046,-11.718750
5047,-11.718750
5048,-11.718750
5049,-11.718750
5050,-11.718750
5051,-11.718750
5052,-11.718750
5053,-11.718750
5054,-11.718750
5055,-11.718750
5056,-11.718750
5057,-11.718750
5058,-11.718750
5059,-11.718750
5060,-11.718750
5061,-11.718750
5062,-11.718750
5063,-11.718750
5064,-11.718750
5065,-11.718750
5066,-11.718750
5067,-11.718750
5068,-11.718750
5069,-11.718750
5070,-11.718750
5071,-11.718750
5072,-11.718750
5073,-7.812500
5074,-7.812500
5075,-7.812500
5076,-7.812500
5077,-7.812500
5078,-7.812500
5079,-7.812500
5080,-7.812500
5081,-7.812500
5082,-7.812500
5083,-7.812500
5084,-7.812500
5085,-7.812500
5086,-7.812500
5087,-7.812500
5088,-7.812500
5089,-7.812500
5090,-7.812500
5091,-7.812500
5092,-7.812500
5093,-7.812500
5094,-7.812500
5095,-3.906250
5096,-7.812500
5097,-7.812500
5098,-7.812500
5099,-3.906250
5100,-7.812500
5101,-3.906250
5102,-3.906250
5103,-3.906250
5104,-3.906250
5105,-3.906250
5106,-3.906250
5107,-3.906250
5108,-3.906250
5109,-3.906250
5110,-3.906250
5111,-3.906250
5112,-3.906250
5113,-3.906250
5114,-3.906250
5115,-3.906250
5116,-3.906250
5117,-3.906250
5118,-3.906250
5119,-3.906250
5120,-3.906250
5121,-3.906250
5122,-3.906250
5123,-3.906250
5124,-3.906250
5125,-3.906250
5126,0.000000
5127,0.000000
5128,-3.906250
5129,0.000000
5130,0.000000
5131,0.000000
5132,0.000000
5133,0.000000
5134,0.000000
5135,0.000000
5136,0.000000
5137,0.000000
5138,0.000000
5139,0.000000
5140,0.000000
5141,0.000000
5142,0.000000
5143,0.000000
5144,0.000000
5145,0.000000
5146,0.000000
5147,0.000000
5148,0.000000
5149,0.000000
5150,0.000000
5151,0.000000
5152,0.000000
5153,0.000000
5154,0.000000
5155,0.000000
5156,0.000000
5157,0.000000
5158,3.906250
5159,3.906250
5160,0.000000
5161,0.000000
5162,3.906250
5163,0.000000
5164,0.000000
5165,3.906250
5166,3.906250
5167,3.906250
5168,3.906250
5169,3.906250
5170,3.906250
5171,3.906250
5172,3.906250
5173,3.906250
5174,3.906250
5175,3.906250
5176,3.906250
5177,3.906250
5178,3.906250
5179,3.906250
5180,3.906250
5181,3.906250
5182,3.906250
5183,3.906250
5184,3.906250
5185,3.906250
5186,3.906250
5187,3.906250
5188,3.906250
5189,3.906250
5190,3.906250
5191,3.906250
5192,3.906250
5193,3.906250
5194,3.906250
5195,3.906250
5196,3.906250
5197,3.906250
5198,7.812500
5199,7.812500
5200,3.906250
5201,3.906250
5202,3.906250
5203,7.812500
5204,3.906250
5205,7.812500
5206,7.812500
5207,7.812500
5208,7.812500
5209,7.812500
5210,7.812500
5211,7.812500
5212,3.906250
5213,7.812500
5214,7.812500
5215,7.812500
5216,7.812500
5217,7.812500
5218,7.812500
5219,7.812500
5220,7.812500
5221,7.812500
5222,7.812500
5223,7.812500
5224,7.812500
5225,7.812500
5226,7.812500
5227,7.812500
5228,7.812500
5229,7.812500
5230,7.812500
5231,7.812500
5232,7.812500
5233,7.812500
5234,7.812500
5235,7.812500
5236,7.812500
5237,7.812500
5238,7.812500
5239,7.812500
5240,7.812500
5241,7.812500
5242,7.812500
5243,7.812500
5244,7.812500
5245,11.718750
5246,7.812500
5247,7.812500
5248,7.812500
5249,7.812500
5250,7.812500
5251,7.812500
5252,7.812500
5253,7.812500
5254,7.812500
5255,11.718750
5256,7.812500
5257,11.718750
5258,11.718750
5259,7.812500
5260,7.812500
5261,7.812500
5262,7.812500
5263,11.718750
5264,7.812500
5265,11.718750
5266,11.718750
5267,11.718750
5268,7.812500
5269,7.812500
5270,7.812500
5271,11.718750
5272,11.718750
5273,11.718750
5274,11.718750
5275,11.718750
5276,11.718750
5277,11.718750
5278,7.812500
5279,11.718750
5280,7.812500
5281,7.812500
5282,11.718750
5283,11.718750
5284,11.718750
5285,11.718750
5286,11.718750
5287,11.718750
5288,7.812500
5289,11.718750
5290,7.812500
5291,11.718750
5292,11.718750
5293,11.718750
5294,11.718750
5295,11.718750
5296,11.718750
5297,11.718750
5298,11.718750
5299,11.718750
5300,7.812500
5301,11.718750
5302,11.718750
5303,11.718750
5304,11.718750
5305,11.718750
5306,11.718750
5307,11.718750
5308,11.718750
5309,11.718750
5310,11.718750
5311,7.812500
5312,11.718750
5313,11.718750
5314,11.718750
5315,11.718750
5316,7.812500
5317,7.812500
5318,11.718750
5319,11.718750
5320,7.812500
5321,11.718750
5322,11.718750
5323,11.718750
5324,11.718750
5325,11.718750
5326,7.812500
5327,11.718750
5328,7.812500
5329,11.718750
5330,11.718750
5331,11.718750
5332,7.812500
5333,7.812500
5334,11.718750
5335,11.718750
5336,7.812500
5337,11.718750
5338,7.812500
5339,7.812500
5340,7.812500
5341,11.718750
5342,7.812500
5343,11.718750
5344,11.718750
5345,11.718750
5346,7.812500
5347,7.812500
5348,7.812500
5349,7.812500
5350,7.812500
5351,7.812500
5352,7.812500
5353,7.812500
5354,7.812500
5355,7.812500
5356,7.812500
5357,7.812500
5358,7.812500
5359,7.812500
5360,7.812500
5361,7.812500
5362,7.812500
5363,7.812500
5364,7.812500
5365,7.812500
5366,7.812500
5367,7.812500
5368,7.812500
5369,7.812500
5370,7.812500
5371,7.812500
5372,7.812500
5373,7.812500
5374,7.812500
5375,7.812500
5376,7.812500
5377,7.812500
5378,7.812500
5379,7.812500
5380,7.812500
5381,7.812500
5382,7.812500
5383,7.812500
5384,7.812500
5385,7.812500
5386,7.812500
5387,7.812500
5388,7.812500
5389,7.812500
5390,7.812500
5391,7.812500
5392,7.812500
5393,7.812500
5394,7.812500
5395,7.812500
5396,7.812500
5397,7.812500
5398,7.812500
5399,7.812500
5400,7.812500
5401,7.812500
5402,7.812500
5403,7.812500
5404,7.812500
5405,7.812500
5406,3.906250
5407,7.812500
5408,3.906250
5409,3.906250
5410,3.906250
5411,7.812500
5412,7.812500
5413,3.906250
5414,3.906250
5415,7.812500
5416,3.906250
5417,3.906250
5418,3.906250
5419,3.906250
5420,3.906250
5421,3.906250
5422,3.906250
5423,3.906250
5424,3.906250
5425,3.906250
5426,3.906250
5427,3.906250
5428,3.906250
5429,3.906250
5430,3.906250
5431,3.906250
5432,3.906250
5433,3.906250
5434,3.906250
5435,3.906250
5436,3.906250
5437,3.906250
5438,3.906250
5439,3.906250
5440,3.906250
5441,3.906250
5442,3.906250
5443,3.906250
5444,3.906250
5445,3.906250
5446,3.906250
5447,0.000000
5448,0.000000
5449,3.906250
5450,0.000000
5451,0.000000
5452,0.000000
5453,0.000000
5454,0.000000
5455,0.000000
5456,0.000000
5457,0.000000
5458,0.000000
5459,0.000000
5460,0.000000
5461,0.000000
5462,0.000000
5463,0.000000
5464,0.000000
5465,0.000000
5466,0.000000
5467,0.000000
5468,0.000000
5469,0.000000
5470,0.000000
5471,0.000000
5472,0.000000
5473,0.000000
5474,0.000000
5475,0.000000
5476,0.000000
5477,0.000000
5478,-3.906250
5479,0.000000
5480,0.000000
5481,0.000000
5482,0.000000
5483,0.000000
5484,-3.906250
5485,-3.906250
5486,-3.906250
5487,-3.906250
5488,-3.906250
5489,-3.906250
5490,-3.906250
5491,-3.906250
5492,-3.906250
5493,-3.906250
5494,-3.906250
5495,-3.906250
5496,-3.906250
5497,-3.906250
5498,-3.906250
5499,-3.906250
5500,-3.906250
5501,-3.906250
5502,-3.906250
5503,-3.906250
5504,-3.906250
5505,-3.906250
5506,-3.906250
5507,-3.906250
5508,-3.906250
5509,-3.906250
5510,-3.906250
5511,-3.906250
5512,-3.906250
5513,-3.906250
5514,-3.906250
5515,-3.906250
5516,-7.812500
5517,-7.812500
5518,-7.812500
5519,-7.812500
5520,-7.812500
5521,-7.812500
5522,-7.812500
5523,-3.906250
5524,-7.812500
5525,-7.812500
5526,-7.812500
5527,-7.812500
5528,-7.812500
5529,-7.812500
5530,-7.812500
5531,-7.812500
5532,-7.812500
5533,-7.812500
5534,-7.812500
5535,-7.812500
5536,-7.812500
5537,-11.718750
5538,-7.812500
5539,-7.812500
5540,-7.812500
5541,-11.718750
5542,-7.812500
5543,-7.812500
5544,-11.718750
5545,-11.718750
5546,-11.718750
5547,-11.718750
5548,-11.718750
5549,-11.718750
5550,-11.718750
5551,-11.718750
5552,-11.718750
5553,-11.718750
5554,-11.718750
5555,-11.718750
5556,-11.718750
5557,-11.718750
5558,-11.718750
5559,-11.718750
5560,-11.718750
5561,-11.718750
5562,-11.718750
5563,-11.718750
5564,-11.718750
5565,-15.625000
5566,-15.625000
5567,-11.718750
5568,-15.625000
5569,-11.718750
5570,-15.625000
5571,-15.625000
5572,-15.625000
5573,-15.625000
5574,-15.625000
5575,-15.625000
5576,-15.625000
5577,-15.625000
5578,-15.625000
5579,-15.625000
5580,-15.625000
5581,-15.625000
5582,-15.625000
5583,-15.625000
5584,-15.625000
5585,-15.625000
5586,-15.625000
5587,-15.625000
5588,-15.625000
5589,-15.625000
5590,-15.625000
5591,-15.625000
5592,-15.625000
5593,-19.531250
5594,-19.531250
5595,-19.531250
5596,-19.531250
5597,-19.531250
5598,-19.531250
5599,-19.531250
5600,-19.531250
5601,-19.531250
5602,-19.531250
5603,-19.531250
5604,-19.531250
5605,-19.531250
5606,-19.531250
5607,-19.531250
5608,-19.531250
5609,-19.531250
5610,-19.531250
5611,-19.531250
5612,-19.531250
5613,-19.531250
5614,-19.531250
5615,-19.531250
5616,-19.531250
5617,-19.531250
5618,-19.531250
5619,-19.531250
5620,-19.531250
5621,-19.531250
5622,-19.531250
5623,-23.437500
5624,-23.437500
5625,-19.531250
5626,-23.437500
5627,-23.437500
5628,-23.437500
5629,-23.437500
5630,-23.437500
5631,-23.437500
5632,-23.437500
5633,-23.437500
5634,-23.437500
5635,-23.437500
5636,-23.437500
5637,-23.437500
5638,-23.437500
5639,-23.437500
5640,-23.437500
5641,-23.437500
5642,-23.437500
5643,-23.437500
5644,-23.437500
5645,-23.437500
5646,-23.437500
5647,-23.437500
5648,-23.437500
5649,-23.437500
5650,-23.437500
5651,-23.437500
5652,-23.437500
5653,-23.437500
5654,-27.343750
5655,-27.343750
5656,-27.343750
5657,-27.343750
5658,-27.343750
5659,-27.343750
5660,-27.343750
5661,-27.343750
5662,-27.343750
5663,-27.343750
5664,-27.343750
5665,-27.343750
5666,-27.343750
5667,-27.343750
5668,-27.343750
5669,-27.343750
5670,-27.343750
5671,-27.343750
5672,-27.343750
5673,-27.343750
5674,-27.343750
5675,-27.343750
5676,-27.343750
5677,-27.343750
5678,-27.343750
5679,-27.343750
5680,-27.343750
5681,-27.343750
5682,-27.343750
5683,-27.343750
5684,-31.250000
5685,-27.343750
5686,-31.250000
5687,-31.250000
5688,-31.250000
5689,-27.343750
5690,-31.250000
5691,-27.343750
5692,-31.250000
5693,-31.250000
5694,-31.250000
5695,-31.250000
5696,-31.250000
5697,-31.250000
5698,-31.250000
5699,-31.250000
5700,-31.250000
5701,-31.250000
5702,-31.250000
5703,-31.250000
5704,-31.250000
5705,-31.250000
5706,-31.250000
5707,-31.250000
5708,-31.250000
5709,-31.250000
5710,-31.250000
5711,-31.250000
5712,-31.250000
5713,-31.250000
5714,-31.250000
5715,-31.250000
5716,-31.250000
5717,-31.250000
5718,-31.250000
5719,-31.250000
5720,-31.250000
5721,-31.250000
5722,-31.250000
5723,-31.250000
5724,-35.156250
5725,-35.156250
5726,-31.250000
5727,-35.156250
5728,-35.156250
5729,-35.156250
5730,-35.156250
5731,-31.250000
5732,-31.250000
5733,-35.156250
5734,-35.156250
5735,-35.156250
5736,-35.156250
5737,-35.156250
5738,-35.156250
5739,-35.156250
5740,-35.156250
5741,-35.156250
5742,-35.156250
5743,-35.156250
5744,-35.156250
5745,-35.156250
5746,-35.156250
5747,-35.156250
5748,-35.156250
5749,-35.156250
5750,-35.156250
5751,-35.156250
5752,-35.156250
5753,-35.156250
5754,-35.156250
5755,-35.156250
5756,-35.156250
5757,-35.156250
5758,-35.156250
5759,-35.156250
5760,-35.156250
5761,-35.156250
5762,-35.156250
5763,-35.156250
5764,-35.156250
5765,-35.156250
5766,-35.156250
5767,-35.156250
5768,-35.156250
5769,-35.156250
5770,-35.156250
5771,-35.156250
5772,-35.156250
5773,-35.156250
5774,-35.156250
5775,-35.156250
5776,-35.156250
5777,-35.156250
5778,-35.156250
5779,-35.156250
5780,-35.156250
5781,-35.156250
5782,-35.156250
5783,-35.156250
5784,-35.156250
5785,-35.156250
5786,-35.156250
5787,-35.156250
5788,-35.156250
5789,-35.156250
5790,-35.156250
5791,-35.156250
5792,-35.156250
5793,-35.156250
5794,-35.156250
5795,-35.156250
5796,-35.156250
5797,-35.156250
5798,-35.156250
5799,-35.156250
5800,-35.156250
5801,-35.156250
5802,-35.156250
5803,-35.156250
5804,-35.156250
5805,-35.156250
5806,-35.156250
5807,-35.156250
5808,-35.156250
5809,-35.156250
5810,-35.156250
5811,-35.156250
5812,-35.156250
5813,-35.156250
5814,-35.156250
5815,-35.156250
5816,-35.156250
5817,-35.156250
5818,-35.156250
5819,-35.156250
5820,-35.156250
5821,-35.156250
5822,-35.156250
5823,-35.156250
5824,-35.156250
5825,-39.062500
5826,-35.156250
5827,-35.156250
5828,-35.156250
5829,-35.156250
5830,-35.156250
5831,-35.156250
5832,-35.156250
5833,-35.156250
5834,-35.156250
5835,-35.156250
5836,-35.156250
5837,-35.156250
5838,-35.156250
5839,-35.156250
5840,-35.156250
5841,-35.156250
5842,-35.156250
5843,-35.156250
5844,-35.156250
5845,-35.156250
5846,-35.156250
5847,-35.156250
5848,-35.156250
5849,-35.156250
5850,-35.156250
5851,-35.156250
5852,-35.156250
5853,-35.156250
5854,-35.156250
5855,-35.156250
5856,-35.156250
5857,-35.156250
5858,-35.156250
5859,-35.156250
5860,-35.156250
5861,-35.156250
5862,-35.156250
5863,-35.156250
5864,-35.156250
5865,-35.156250
5866,-31.250000
5867,-35.156250
5868,-35.156250
5869,-35.156250
5870,-35.156250
5871,-35.156250
5872,-35.156250
5873,-35.156250
5874,-35.156250
5875,-31.250000
5876,-35.156250
5877,-31.250000
5878,-31.250000
5879,-31.250000
5880,-31.250000
5881,-31.250000
5882,-31.250000
5883,-31.250000
5884,-31.250000
5885,-31.250000
5886,-31.250000
5887,-31.250000
5888,-31.250000
5889,-31.250000
5890,-31.250000
5891,-31.250000
5892,-31.250000
5893,-31.250000
5894,-31.250000
5895,-31.250000
5896,-31.250000
5897,-31.250000
5898,-31.250000
5899,-31.250000
5900,-31.250000
5901,-31.250000
5902,-31.250000
5903,-31.250000
5904,-31.250000
5905,-31.250000
5906,-31.250000
5907,-31.250000
5908,-31.250000
5909,-31.250000
5910,-31.250000
5911,-31.250000
5912,-31.250000
5913,-31.250000
5914,-31.250000
5915,-31.250000
5916,-31.250000
5917,-27.343750
5918,-27.343750
5919,-27.343750
5920,-27.343750
5921,-31.250000
5922,-31.250000
5923,-31.250000
5924,-27.343750
5925,-27.343750
5926,-27.343750
5927,-27.343750
5928,-27.343750
5929,-27.343750
5930,-27.343750
5931,-27.343750
5932,-27.343750
5933,-27.343750
5934,-27.343750
5935,-27.343750
5936,-27.343750
5937,-27.343750
5938,-27.343750
5939,-27.343750
5940,-27.343750
5941,-27.343750
5942,-27.343750
5943,-27.343750
5944,-27.343750
5945,-27.343750
5946,-27.343750
5947,-27.343750
5948,-23.437500
5949,-27.343750
5950,-27.343750
5951,-27.343750
5952,-27.343750
5953,-27.343750
5954,-27.343750
5955,-23.437500
5956,-23.437500
5957,-23.437500
5958,-23.437500
5959,-23.437500
5960,-23.437500
5961,-23.437500
5962,-23.437500
5963,-23.437500
5964,-23.437500
5965,-23.437500
5966,-23.437500
5967,-23.437500
5968,-23.437500
5969,-23.437500
5970,-23.437500
5971,-23.437500
5972,-23.437500
5973,-23.437500
5974,-23.437500
5975,-23.437500
5976,-23.437500
5977,-19.531250
5978,-23.437500
5979,-23.437500
5980,-23.437500
5981,-23.437500
5982,-23.437500
5983,-19.531250
5984,-19.531250
5985,-19.531250
5986,-19.531250
5987,-19.531250
5988,-19.531250
5989,-19.531250
5990,-19.531250
5991,-19.531250
5992,-19.531250
5993,-19.531250
5994,-19.531250
5995,-19.531250
5996,-19.531250
5997,-19.531250
5998,-19.531250
5999,-19.531250
6000,-19.531250
6001,-19.531250
6002,-19.531250
6003,-19.531250
6004,-19.531250
6005,-15.625000
6006,-15.625000
6007,-19.531250
6008,-15.625000
6009,-15.625000
6010,-15.625000
6011,-15.625000
6012,-19.531250
6013,-15.625000
6014,-15.625000
6015,-15.625000
6016,-15.625000
6017,-15.625000
6018,-15.625000
6019,-15.625000
6020,-15.625000
6021,-15.625000
6022,-15.625000
6023,-15.625000
6024,-15.625000
6025,-15.625000
6026,-15.625000
6027,-15.625000
6028,-15.625000
6029,-15.625000
6030,-15.625000
6031,-15.625000
6032,-15.625000
6033,-15.625000
6034,-15.625000
6035,-11.718750
6036,-11.718750
6037,-11.718750
6038,-11.718750
6039,-11.718750
6040,-11.718750
6041,-11.718750
6042,-11.718750
6043,-11.718750
6044,-11.718750
6045,-11.718750
6046,-11.718750
6047,-11.718750
6048,-11.718750
6049,-11.718750
6050,-11.718750
6051,-11.718750
6052,-11.718750
6053,-11.718750
6054,-11.718750
6055,-11.718750
6056,-11.718750
6057,-7.812500
6058,-7.812500
6059,-7.812500
6060,-11.718750
6061,-11.718750
6062,-7.812500
6063,-7.812500
6064,-7.812500
6065,-7.812500
6066,-7.812500
6067,-7.812500
6068,-7.812500
6069,-7.812500
6070,-7.812500
6071,-7.812500
6072,-7.812500
6073,-7.812500
6074,-7.812500
6075,-7.812500
6076,-7.812500
6077,-7.812500
6078,-7.812500
6079,-7.812500
6080,-7.812500
6081,-7.812500
6082,-7.812500
6083,-7.812500
6084,-7.812500
6085,-3.906250
6086,-3.906250
6087,-3.906250
6088,-7.812500
6089,-7.812500
6090,-3.906250
6091,-3.906250
6092,-3.906250
6093,-3.906250
6094,-3.906250
6095,-3.906250
6096,-3.906250
6097,-3.906250
6098,-3.906250
6099,-3.906250
6100,-3.906250
6101,-3.906250
6102,-3.906250
6103,-3.906250
6104,-3.906250
6105,-3.906250
6106,-3.906250
6107,-3.906250
6108,-3.906250
6109,-3.906250
6110,-3.906250
6111,-3.906250
6112,-3.906250
6113,-3.906250
6114,0.000000
6115,0.000000
6116,0.000000
6117,0.000000
6118,-3.906250
6119,0.000000
6120,-3.906250
6121,0.000000
6122,0.000000
6123,0.000000
6124,0.000000
6125,0.000000
6126,0.000000
6127,0.000000
6128,0.000000
6129,0.000000
6130,0.000000
6131,0.000000
6132,0.000000
6133,0.000000
6134,0.000000
6135,0.000000
6136,0.000000
6137,0.000000
6138,0.000000
6139,0.000000
6140,0.000000
6141,0.000000
6142,0.000000
6143,0.000000
6144,0.000000
6145,3.906250
6146,0.000000
6147,0.000000
6148,0.000000
6149,0.000000
6150,0.000000
6151,3.906250
6152,3.906250
6153,3.906250
6154,3.906250
6155,3.906250
6156,3.906250
6157,3.906250
6158,3.906250
6159,3.906250
6160,3.906250
6161,3.906250
6162,3.906250
6163,3.906250
6164,3.906250
6165,3.906250
6166,3.906250
6167,3.906250
6168,3.906250
6169,3.906250
6170,3.906250
6171,3.906250
6172,3.906250
6173,3.906250
6174,3.906250
6175,3.906250
6176,3.906250
6177,3.906250
6178,3.906250
6179,3.906250
6180,3.906250
6181,3.906250
6182,3.906250
6183,3.906250
6184,3.906250
6185,3.906250
6186,7.812500
6187,7.812500
6188,3.906250
6189,3.906250
6190,7.812500
6191,3.906250
6192,7.812500
6193,7.812500
6194,7.812500
6195,7.812500
6196,7.812500
6197,7.812500
6198,7.812500
6199,7.812500
6200,3.906250
6201,7.812500
6202,3.906250
6203,7.812500
6204,7.812500
6205,7.812500
6206,7.812500
6207,7.812500
6208,7.812500
6209,7.812500
6210,7.812500
6211,7.812500
6212,7.812500
6213,7.812500
6214,7.812500
6215,7.812500
6216,7.812500
6217,7.812500
6218,7.812500
6219,7.812500
6220,3.906250
6221,7.812500
6222,7.812500
6223,7.812500
6224,7.812500
6225,7.812500
6226,7.812500
6227,7.812500
6228,7.812500
6229,7.812500
6230,7.812500
6231,7.812500
6232,7.812500
6233,7.812500
6234,7.812500
6235,7.812500
6236,7.812500
6237,7.812500
6238,7.812500
6239,7.812500
6240,7.812500
6241,7.812500
6242,7.812500
6243,7.812500
6244,7.812500
6245,7.812500
6246,7.812500
6247,7.812500
6248,7.812500
6249,7.812500
6250,7.812500
6251,7.812500
6252,7.812500
6253,7.812500
6254,7.812500
6255,7.812500
6256,7.812500
6257,7.812500
6258,7.812500
6259,7.812500
6260,7.812500
6261,7.812500
6262,11.718750
6263,7.812500
6264,7.812500
6265,7.812500
6266,7.812500
6267,7.812500
6268,11.718750
6269,11.718750
6270,11.718750
6271,11.718750
6272,11.718750
6273,11.718750
6274,11.718750
6275,11.718750
6276,7.812500
6277,7.812500
6278,11.718750
6279,11.718750
6280,11.718750
6281,11.718750
6282,11.718750
6283,11.718750
6284,11.718750
6285,7.812500
6286,7.812500
6287,11.718750
6288,11.718750
6289,7.812500
6290,11.718750
6291,11.718750
6292,11.718750
6293,11.718750
6294,11.718750
6295,11.718750
6296,11.718750
6297,11.718750
6298,7.812500
6299,11.718750
6300,11.718750
6301,11.718750
6302,7.812500
6303,11.718750
6304,11.718750
6305,11.718750
6306,11.718750
6307,11.718750
6308,7.812500
6309,11.718750
6310,11.718750
6311,11.718750
6312,7.812500
6313,11.718750
6314,11.718750
6315,11.718750
6316,11.718750
6317,11.718750
6318,7.812500
6319,7.812500
6320,7.812500
6321,11.718750
6322,7.812500
6323,11.718750
6324,11.718750
6325,7.812500
6326,7.812500
6327,7.812500
6328,7.812500
6329,7.812500
6330,11.718750
6331,7.812500
6332,7.812500
6333,11.718750
6334,11.718750
6335,7.812500
6336,7.812500
6337,7.812500
6338,7.812500
6339,7.812500
6340,7.812500
6341,7.812500
6342,7.812500
6343,7.812500
6344,7.812500
6345,7.812500
6346,7.812500
6347,7.812500
6348,7.812500
6349,7.812500
6350,7.812500
6351,7.812500
6352,7.812500
6353,7.812500
6354,7.812500
6355,7.812500
6356,7.812500
6357,7.812500
6358,7.812500
6359,7.812500
6360,7.812500
6361,7.812500
6362,7.812500
6363,7.812500
6364,7.812500
6365,7.812500
6366,7.812500
6367,7.812500
6368,7.812500
6369,7.812500
6370,7.812500
6371,7.812500
6372,7.812500
6373,7.812500
6374,7.812500
6375,7.812500
6376,7.812500
6377,7.812500
6378,7.812500
6379,7.812500
6380,7.812500
6381,7.812500
6382,7.812500
6383,7.812500
6384,7.812500
6385,7.812500
6386,7.812500
6387,7.812500
6388,7.812500
6389,7.812500
6390,7.812500
6391,7.812500
6392,7.812500
6393,7.812500
6394,3.906250
6395,3.906250
6396,7.812500
6397,7.812500
6398,3.906250
6399,7.812500
6400,7.812500
6401,3.906250
6402,3.906250
6403,7.812500
6404,3.906250
6405,3.906250
6406,3.906250
6407,3.906250
6408,3.906250
6409,3.906250
6410,3.906250
6411,3.906250
6412,3.906250
6413,3.906250
6414,3.906250
6415,3.906250
6416,3.906250
6417,3.906250
6418,3.906250
6419,3.906250
6420,3.906250
6421,3.906250
6422,3.906250
6423,3.906250
6424,3.906250
6425,3.906250
6426,3.906250
6427,3.906250
6428,3.906250
6429,3.906250
6430,3.906250
6431,3.906250
6432,3.906250
6433,3.906250
6434,3.906250
6435,3.906250
6436,0.000000
6437,0.000000
6438,0.000000
6439,3.906250
6440,3.906250
6441,3.906250
6442,3.906250
6443,0.000000
6444,0.000000
6445,0.000000
6446,0.000000
6447,0.000000
6448,0.000000
6449,0.000000
6450,0.000000
6451,0.000000
6452,0.000000
6453,0.000000
6454,0.000000
6455,0.000000
6456,0.000000
6457,0.000000
6458,0.000000
6459,0.000000
6460,0.000000
6461,0.000000
6462,0.000000
6463,0.000000
6464,0.000000
6465,0.000000
6466,-3.906250
6467,-3.906250
6468,0.000000
6469,0.000000
6470,0.000000
6471,0.000000
6472,-3.906250
6473,0.000000
6474,-3.906250
6475,-3.906250
6476,-3.906250
6477,-3.906250
6478,-3.906250
6479,-3.906250
6480,-3.906250
6481,-3.906250
6482,-3.906250
6483,-3.906250
6484,-3.906250
6485,-3.906250
6486,-3.906250
6487,-3.906250
6488,-3.906250
6489,-3.906250
6490,-3.906250
6491,-3.906250
6492,-3.906250
6493,-3.906250
6494,-3.906250
6495,-3.906250
6496,-3.906250
6497,-3.906250
6498,-3.906250
6499,-3.906250
6500,-3.906250
6501,-3.906250
6502,-3.906250
6503,-3.906250
6504,-7.812500
6505,-3.906250
6506,-7.812500
6507,-7.812500
6508,-7.812500
6509,-7.812500
6510,-7.812500
6511,-7.812500
6512,-7.812500
6513,-7.812500
6514,-7.812500
6515,-7.812500
6516,-7.812500
6517,-7.812500
6518,-7.812500
6519,-7.812500
6520,-7.812500
6521,-7.812500
6522,-7.812500
6523,-7.812500
6524,-7.812500
6525,-7.812500
6526,-7.812500
6527,-7.812500
6528,-7.812500
6529,-7.812500
6530,-7.812500
6531,-7.812500
6532,-7.812500
6533,-7.812500
6534,-7.812500
6535,-7.812500
6536,-15.625000
6537,-11.718750
6538,-11.718750
6539,-11.718750
6540,-11.718750
6541,-11.718750
6542,-11.718750
6543,-11.718750
6544,-11.718750
6545,-11.718750
6546,-11.718750
6547,-11.718750
6548,-11.718750
6549,-11.718750
6550,-11.718750
6551,-11.718750
6552,-11.718750
6553,-11.718750
6554,-11.718750
6555,-11.718750
6556,-11.718750
6557,-11.718750
6558,-11.718750
6559,-15.625000
6560,-11.718750
6561,-15.625000
6562,-11.718750
6563,-11.718750
6564,-15.625000
6565,-15.625000
6566,-15.625000
6567,-15.625000
6568,-15.625000
6569,-15.625000
6570,-15.625000
6571,-15.625000
6572,-15.625000
6573,-15.625000
6574,-15.625000
6575,-15.625000
6576,-15.625000
6577,-15.625000
6578,-15.625000
6579,-15.625000
6580,-15.625000
6581,-15.625000
6582,-15.625000
6583,-15.625000
6584,-15.625000
6585,-15.625000
6586,-19.531250
6587,-19.531250
6588,-19.531250
6589,-19.531250
6590,-19.531250
6591,-19.531250
6592,-19.531250
6593,-19.531250
6594,-19.531250
6595,-19.531250
6596,-19.531250
6597,-19.531250
6598,-19.531250
6599,-19.531250
6600,-19.531250
6601,-19.531250
6602,-19.531250
6603,-19.531250
6604,-19.531250
6605,-19.531250
6606,-19.531250
6607,-19.531250
6608,-19.531250
6609,-19.531250
6610,-19.531250
6611,-23.437500
6612,-23.437500
6613,-23.437500
6614,-19.531250
6615,-23.437500
6616,-23.437500
6617,-23.437500
6618,-23.437500
6619,-23.437500
6620,-23.437500
6621,-23.437500
6622,-23.437500
6623,-23.437500
6624,-23.437500
6625,-23.437500
6626,-23.437500
6627,-23.437500
6628,-23.437500
6629,-23.437500
6630,-23.437500
6631,-23.437500
6632,-23.437500
6633,-23.437500
6634,-23.437500
6635,-23.437500
6636,-23.437500
6637,-23.437500
6638,-27.343750
6639,-23.437500
6640,-23.437500
6641,-27.343750
6642,-27.343750
6643,-27.343750
6644,-27.343750
6645,-27.343750
6646,-27.343750
6647,-27.343750
6648,-27.343750
6649,-27.343750
6650,-27.343750
6651,-27.343750
6652,-27.343750
6653,-27.343750
6654,-27.343750
6655,-27.343750
6656,-27.343750
6657,-27.343750
6658,-27.343750
6659,-27.343750
6660,-27.343750
6661,-27.343750
6662,-27.343750
6663,-27.343750
6664,-27.343750
6665,-27.343750
6666,-27.343750
6667,-27.343750
6668,-27.343750
6669,-27.343750
6670,-27.343750
6671,-27.343750
6672,-27.343750
6673,-27.343750
6674,-27.343750
6675,-31.250000
6676,-31.250000
6677,-31.250000
6678,-27.343750
6679,-27.343750
6680,-27.343750
6681,-27.343750
6682,-27.343750
6683,-31.250000
6684,-31.250000
6685,-31.250000
6686,-31.250000
6687,-31.250000
6688,-31.250000
6689,-31.250000
6690,-31.250000
6691,-31.250000
6692,-31.250000
6693,-31.250000
6694,-31.250000
6695,-31.250000
6696,-31.250000
6697,-31.250000
6698,-31.250000
6699,-31.250000
6700,-31.250000
6701,-31.250000
6702,-31.250000
6703,-31.250000
6704,-31.250000
6705,-31.250000
6706,-31.250000
6707,-31.250000
6708,-31.250000
6709,-31.250000
6710,-31.250000
6711,-31.250000
6712,-31.250000
6713,-31.250000
6714,-31.250000
6715,-35.156250
6716,-35.156250
6717,-31.250000
6718,-31.250000
6719,-31.250000
6720,-31.250000
6721,-31.250000
6722,-31.250000
6723,-35.156250
6724,-35.156250
6725,-35.156250
6726,-35.156250
6727,-35.156250
6728,-35.156250
6729,-35.156250
6730,-31.250000
6731,-35.156250
6732,-35.156250
6733,-35.156250
6734,-35.156250
6735,-35.156250
6736,-35.156250
6737,-35.156250
6738,-35.156250
6739,-35.156250
6740,-35.156250
6741,-35.156250
6742,-35.156250
6743,-35.156250
6744,-35.156250
6745,-35.156250
6746,-35.156250
6747,-35.156250
6748,-35.156250
6749,-35.156250
6750,-35.156250
6751,-35.156250
6752,-35.156250
6753,-35.156250
6754,-35.156250
6755,-35.156250
6756,-35.156250
6757,-35.156250
6758,-35.156250
6759,-35.156250
6760,-35.156250
6761,-35.156250
6762,-35.156250
6763,-35.156250
6764,-35.156250
6765,-35.156250
6766,-35.156250
6767,-35.156250
6768,-35.156250
6769,-35.156250
6770,-35.156250
6771,-35.156250
6772,-35.156250
6773,-35.156250
6774,-35.156250
6775,-35.156250
6776,-35.156250
6777,-35.156250
6778,-35.156250
6779,-35.156250
6780,-35.156250
6781,-35.156250
6782,-35.156250
6783,-35.156250
6784,-35.156250
6785,-35.156250
6786,-35.156250
6787,-35.156250
6788,-35.156250
6789,-35.156250
6790,-35.156250
6791,-35.156250
6792,-35.156250
6793,-35.156250
6794,-35.156250
6795,-35.156250
6796,-35.156250
6797,-35.156250
6798,-35.156250
6799,-35.156250
6800,-35.156250
6801,-35.156250
6802,-35.156250
6803,-35.156250
6804,-35.156250
6805,-35.156250
6806,-35.156250
6807,-35.156250
6808,-35.156250
6809,-35.156250
6810,-35.156250
6811,-35.156250
6812,-35.156250
6813,-35.156250
6814,-35.156250
6815,-35.156250
6816,-35.156250
6817,-35.156250
6818,-35.156250
6819,-35.156250
6820,-35.156250
6821,-35.156250
6822,-35.156250
6823,-35.156250
6824,-35.156250
6825,-35.156250
6826,-35.156250
6827,-35.156250
6828,-35.156250
6829,-35.156250
6830,-35.156250
6831,-35.156250
6832,-35.156250
6833,-35.156250
6834,-35.156250
6835,-35.156250
6836,-35.156250
6837,-35.156250
6838,-35.156250
6839,-35.156250
6840,-35.156250
6841,-35.156250
6842,-35.156250
6843,-35.156250
6844,-35.156250
6845,-35.156250
6846,-35.156250
6847,-35.156250
6848,-35.156250
6849,-35.156250
6850,-35.156250
6851,-35.156250
6852,-35.156250
6853,-35.156250
6854,-35.156250
6855,-35.156250
6856,-35.156250
6857,-35.156250
6858,-35.156250
6859,-35.156250
6860,-35.156250
6861,-35.156250
6862,-35.156250
6863,-35.156250
6864,-35.156250
6865,-35.156250
6866,-35.156250
6867,-35.156250
6868,-35.156250
6869,-35.156250
6870,-35.156250
6871,-31.250000
6872,-35.156250
6873,-35.156250
6874,-35.156250
6875,-35.156250
6876,-31.250000
6877,-31.250000
6878,-35.156250
6879,-31.250000
6880,-31.250000
6881,-31.250000
6882,-31.250000
6883,-31.250000
6884,-31.250000
6885,-31.250000
6886,-31.250000
6887,-31.250000
6888,-31.250000
6889,-31.250000
6890,-31.250000
6891,-31.250000
6892,-31.250000
6893,-31.250000
6894,-31.250000
6895,-31.250000
6896,-31.250000
6897,-31.250000
6898,-31.250000
6899,-31.250000
6900,-31.250000
6901,-31.250000
6902,-31.250000
6903,-31.250000
6904,-31.250000
6905,-31.250000
6906,-31.250000
6907,-31.250000
6908,-31.250000
6909,-31.250000
6910,-31.250000
6911,-31.250000
6912,-31.250000
6913,-27.343750
6914,-27.343750
6915,-27.343750
6916,-27.343750
6917,-27.343750
6918,-27.343750
6919,-27.343750
6920,-27.343750
6921,-27.343750
6922,-27.343750
6923,-27.343750
6924,-27.343750
6925,-27.343750
6926,-27.343750
6927,-27.343750
6928,-27.343750
6929,-27.343750
6930,-27.343750
6931,-27.343750
6932,-27.343750
6933,-27.343750
6934,-27.343750
6935,-27.343750
6936,-23.437500
6937,-27.343750
6938,-23.437500
6939,-23.437500
6940,-27.343750
6941,-27.343750
6942,-27.343750
6943,-23.437500
6944,-23.437500
6945,-23.437500
6946,-23.437500
6947,-23.437500
6948,-23.437500
6949,-23.437500
6950,-23.437500
6951,-23.437500
6952,-23.437500
6953,-23.437500
6954,-23.437500
6955,-23.437500
6956,-23.437500
6957,-23.437500
6958,-23.437500
6959,-23.437500
6960,-23.437500
6961,-23.437500
6962,-23.437500
6963,-23.437500
6964,-23.437500
6965,-23.437500
6966,-23.437500
6967,-23.437500
6968,-23.437500
6969,-23.437500
6970,-23.437500
6971,-23.437500
6972,-23.437500
6973,-19.531250
6974,-23.437500
6975,-19.531250
6976,-19.531250
6977,-19.531250
6978,-19.531250
6979,-19.531250
6980,-19.531250
6981,-19.531250
6982,-19.531250
6983,-19.531250
6984,-19.531250
6985,-19.531250
6986,-19.531250
6987,-19.531250
6988,-19.531250
6989,-19.531250
6990,-19.531250
6991,-19.531250
6992,-19.531250
6993,-19.531250
6994,-19.531250
6995,-19.531250
6996,-19.531250
6997,-15.625000
6998,-19.531250
6999,-19.531250
7000,-19.531250
7001,-19.531250
7002,-19.531250
7003,-15.625000
7004,-15.625000
7005,-15.625000
7006,-15.625000
7007,-15.625000
7008,-15.625000
7009,-15.625000
7010,-15.625000
7011,-15.625000
7012,-15.625000
7013,-15.625000
7014,-15.625000
7015,-15.625000
7016,-15.625000
7017,-15.625000
7018,-15.625000
7019,-15.625000
7020,-15.625000
7021,-15.625000
7022,-15.625000
7023,-15.625000
7024,-15.625000
7025,-15.625000
7026,-11.718750
7027,-11.718750
7028,-11.718750
7029,-15.625000
7030,-11.718750
7031,-11.718750
7032,-11.718750
7033,-11.718750
7034,-11.718750
7035,-11.718750
7036,-11.718750
7037,-11.718750
7038,-11.718750
7039,-11.718750
7040,-11.718750
7041,-11.718750
7042,-11.718750
7043,-11.718750
7044,-11.718750
7045,-11.718750
7046,-7.812500
7047,-11.718750
7048,-7.812500
7049,-7.812500
7050,-7.812500
7051,-11.718750
7052,-11.718750
7053,-7.812500
7054,-7.812500
7055,-7.812500
7056,-7.812500
7057,-7.812500
7058,-7.812500
7059,-7.812500
7060,-7.812500
7061,-7.812500
7062,-7.812500
7063,-7.812500
7064,-7.812500
7065,-7.812500
7066,-7.812500
7067,-7.812500
7068,-7.812500
7069,-7.812500
7070,-7.812500
7071,-7.812500
7072,-7.812500
7073,-7.812500
7074,-7.812500
7075,-7.812500
7076,-3.906250
7077,-3.906250
7078,-3.906250
7079,-3.906250
7080,-3.906250
7081,-3.906250
7082,-3.906250
7083,-3.906250
7084,-3.906250
7085,-3.906250
7086,-3.906250
7087,-3.906250
7088,-3.906250
7089,-3.906250
7090,-3.906250
7091,-3.906250
7092,-3.906250
7093,-3.906250
7094,-3.906250
7095,-3.906250
7096,-3.906250
7097,-3.906250
7098,-3.906250
7099,-3.906250
7100,-3.906250
7101,-3.906250
7102,-3.906250
7103,-3.906250
7104,-3.906250
7105,-3.906250
7106,-3.906250
7107,-3.906250
7108,0.000000
7109,0.000000
7110,0.000000
7111,0.000000
7112,0.000000
7113,0.000000
7114,0.000000
7115,0.000000
7116,0.000000
7117,0.000000
7118,0.000000
7119,0.000000
7120,0.000000
7121,0.000000
7122,0.000000
7123,0.000000
7124,0.000000
7125,0.000000
7126,0.000000
7127,0.000000
7128,0.000000
7129,0.000000
7130,0.000000
7131,0.000000
7132,0.000000
7133,0.000000
7134,0.000000
7135,0.000000
7136,0.000000
7137,0.000000
7138,0.000000
7139,0.000000
7140,0.000000
7141,0.000000
7142,3.906250
7143,3.906250
7144,3.906250
7145,3.906250
7146,3.906250
7147,3.906250
7148,3.906250
7149,3.906250
7150,3.906250
7151,3.906250
7152,3.906250
7153,3.906250
7154,3.906250
7155,3.906250
7156,3.906250
7157,3.906250
7158,3.906250
7159,3.906250
7160,3.906250
7161,3.906250
7162,3.906250
7163,3.906250
7164,3.906250
7165,3.906250
7166,3.906250
7167,3.906250
7168,3.906250
7169,3.906250
7170,3.906250
7171,3.906250
7172,3.906250
7173,3.906250
7174,3.906250
7175,7.812500
7176,7.812500
7177,3.906250
7178,7.812500
7179,3.906250
7180,3.906250
7181,7.812500
7182,7.812500
7183,7.812500
7184,7.812500
7185,7.812500
7186,7.812500
7187,7.812500
7188,7.812500
7189,7.812500
7190,7.812500
7191,7.812500
7192,7.812500
7193,7.812500
7194,7.812500
7195,7.812500
7196,7.812500
7197,7.812500
7198,7.812500
7199,7.812500
7200,7.812500
7201,7.812500
7202,7.812500
7203,7.812500
7204,7.812500
7205,7.812500
7206,7.812500
7207,7.812500
7208,7.812500
7209,7.812500
7210,7.812500
7211,7.812500
7212,7.812500
7213,7.812500
7214,7.812500
7215,7.812500
7216,7.812500
7217,7.812500
7218,7.812500
7219,7.812500
7220,7.812500
7221,7.812500
7222,7.812500
7223,7.812500
7224,7.812500
7225,7.812500
7226,7.812500
7227,7.812500
7228,7.812500
7229,7.812500
7230,7.812500
7231,7.812500
7232,7.812500
7233,7.812500
7234,7.812500
7235,11.718750
7236,7.812500
7237,7.812500
7238,7.812500
7239,7.812500
7240,7.812500
7241,7.812500
7242,7.812500
7243,7.812500
7244,7.812500
7245,7.812500
7246,7.812500
7247,7.812500
7248,7.812500
7249,7.812500
7250,7.812500
7251,7.812500
7252,11.718750
7253,7.812500
7254,7.812500
7255,11.718750
7256,7.812500
7257,11.718750
7258,11.718750
7259,7.812500
7260,7.812500
7261,11.718750
7262,7.812500
7263,11.718750
7264,11.718750
7265,11.718750
7266,11.718750
7267,11.718750
7268,7.812500
7269,7.812500
7270,11.718750
7271,11.718750
7272,11.718750
7273,11.718750
7274,7.812500
7275,11.718750
7276,11.718750
7277,7.812500
7278,11.718750
7279,11.718750
7280,7.812500
7281,11.718750
7282,11.718750
7283,11.718750
7284,11.718750
7285,11.718750
7286,11.718750
7287,11.718750
7288,7.812500
7289,7.812500
7290,11.718750
7291,11.718750
7292,11.718750
7293,11.718750
7294,11.718750
7295,7.812500
7296,11.718750
7297,7.812500
7298,7.812500
7299,7.812500
7300,11.718750
7301,11.718750
7302,11.718750
7303,11.718750
7304,11.718750
7305,11.718750
7306,11.718750
7307,7.812500
7308,7.812500
7309,7.812500
7310,7.812500
7311,7.812500
7312,11.718750
7313,11.718750
7314,7.812500
7315,11.718750
7316,11.718750
7317,7.812500
7318,7.812500
7319,7.812500
7320,11.718750
7321,11.718750
7322,11.718750
7323,11.718750
7324,11.718750
7325,11.718750
7326,7.812500
7327,7.812500
7328,7.812500
7329,7.812500
7330,7.812500
7331,7.812500
7332,7.812500
7333,7.812500
7334,7.812500
7335,7.812500
7336,7.812500
7337,7.812500
7338,7.812500
7339,7.812500
7340,7.812500
7341,7.812500
7342,7.812500
7343,7.812500
7344,7.812500
7345,7.812500
7346,7.812500
7347,7.812500
7348,7.812500
7349,7.812500
7350,7.812500
7351,7.812500
7352,7.812500
7353,7.812500
7354,7.812500
7355,7.812500
7356,7.812500
7357,7.812500
7358,7.812500
7359,7.812500
7360,7.812500
7361,7.812500
7362,7.812500
7363,7.812500
7364,7.812500
7365,7.812500
7366,7.812500
7367,7.812500
7368,7.812500
7369,7.812500
7370,7.812500
7371,7.812500
7372,7.812500
7373,7.812500
7374,7.812500
7375,7.812500
7376,7.812500
7377,7.812500
7378,7.812500
7379,7.812500
7380,7.812500
7381,3.906250
7382,3.906250
7383,7.812500
7384,3.906250
7385,7.812500
7386,3.906250
7387,3.906250
7388,3.906250
7389,3.906250
7390,3.906250
7391,3.906250
7392,3.906250
7393,3.906250
7394,3.906250
7395,3.906250
7396,3.906250
7397,3.906250
7398,3.906250
7399,3.906250
7400,3.906250
7401,3.906250
7402,3.906250
7403,3.906250
7404,3.906250
7405,3.906250
7406,3.906250
7407,3.906250
7408,3.906250
7409,3.906250
7410,3.906250
7411,3.906250
7412,3.906250
7413,3.906250
7414,3.906250
7415,3.906250
7416,3.906250
7417,3.906250
7418,3.906250
7419,3.906250
7420,3.906250
7421,3.906250
7422,3.906250
7423,3.906250
7424,0.000000
7425,0.000000
7426,3.906250
7427,0.000000
7428,0.000000
7429,3.906250
7430,0.000000
7431,3.906250
7432,0.000000
7433,0.000000
7434,0.000000
7435,0.000000
7436,0.000000
7437,0.000000
7438,0.000000
7439,0.000000
7440,0.000000
7441,0.000000
7442,0.000000
7443,0.000000
7444,0.000000
7445,0.000000
7446,0.000000
7447,0.000000
7448,0.000000
7449,0.000000
7450,0.000000
7451,0.000000
7452,0.000000
7453,0.000000
7454,0.000000
7455,0.000000
7456,0.000000
7457,0.000000
7458,0.000000
7459,0.000000
7460,0.000000
7461,0.000000
7462,0.000000
7463,0.000000
7464,0.000000
7465,0.000000
7466,-3.906250
7467,-3.906250
7468,-3.906250
7469,-3.906250
7470,-3.906250
7471,-3.906250
7472,-3.906250
7473,-3.906250
7474,-3.906250
7475,-3.906250
7476,-3.906250
7477,-3.906250
7478,-3.906250
7479,-3.906250
7480,-3.906250
7481,-3.906250
7482,-3.906250
7483,-3.906250
7484,-3.906250
7485,-3.906250
7486,-3.906250
7487,-3.906250
7488,-3.906250
7489,-3.906250
7490,-3.906250
7491,-3.906250
7492,-3.906250
7493,-7.812500
7494,-7.812500
7495,-7.812500
7496,-7.812500
7497,-7.812500
7498,-7.812500
7499,-7.812500
7500,-7.812500
7501,-7.812500
7502,-7.812500
7503,-7.812500
7504,-7.812500
7505,-7.812500
7506,-7.812500
7507,-7.812500
7508,-7.812500
7509,-7.812500
7510,-7.812500
7511,-7.812500
7512,-7.812500
7513,-7.812500
7514,-7.812500
7515,-7.812500
7516,-7.812500
7517,-7.812500
7518,-11.718750
7519,-11.718750
7520,-7.812500
7521,-7.812500
7522,-7.812500
7523,-7.812500
7524,-11.718750
7525,-11.718750
7526,-11.718750
7527,-11.718750
7528,-11.718750
7529,-11.718750
7530,-11.718750
7531,-11.718750
7532,-11.718750
7533,-11.718750
7534,-11.718750
7535,-11.718750
7536,-11.718750
7537,-11.718750
7538,-11.718750
7539,-11.718750
7540,-11.718750
7541,-11.718750
7542,-11.718750
7543,-11.718750
7544,-11.718750
7545,-15.625000
7546,-15.625000
7547,-15.625000
7548,-15.625000
7549,-15.625000
7550,-15.625000
7551,-15.625000
7552,-15.625000
7553,-15.625000
7554,-15.625000
7555,-15.625000
7556,-15.625000
7557,-15.625000
7558,-15.625000
7559,-15.625000
7560,-15.625000
7561,-15.625000
7562,-15.625000
7563,-15.625000
7564,-15.625000
7565,-15.625000
7566,-15.625000
7567,-15.625000
7568,-15.625000
7569,-15.625000
7570,-15.625000
7571,-15.625000
7572,-15.625000
7573,-15.625000
7574,-15.625000
7575,-15.625000
7576,-15.625000
7577,-15.625000
7578,-15.625000
7579,-15.625000
7580,-19.531250
7581,-19.531250
7582,-19.531250
7583,-19.531250
7584,-19.531250
7585,-19.531250
7586,-19.531250
7587,-19.531250
7588,-19.531250
7589,-19.531250
7590,-19.531250
7591,-19.531250
7592,-19.531250
7593,-19.531250
7594,-19.531250
7595,-19.531250
7596,-19.531250
7597,-19.531250
7598,-19.531250
7599,-19.531250
7600,-19.531250
7601,-19.531250
7602,-23.437500
7603,-23.437500
7604,-23.437500
7605,-23.437500
7606,-23.437500
7607,-23.437500
7608,-23.437500
7609,-23.437500
7610,-23.437500
7611,-23.437500
7612,-23.437500
7613,-23.437500
7614,-23.437500
7615,-23.437500
7616,-23.437500
7617,-23.437500
7618,-23.437500
7619,-23.437500
7620,-23.437500
7621,-23.437500
7622,-23.437500
7623,-23.437500
7624,-23.437500
7625,-23.437500
7626,-23.437500
7627,-23.437500
7628,-23.437500
7629,-23.437500
7630,-23.437500
7631,-23.437500
7632,-23.437500
7633,-23.437500
7634,-27.343750
7635,-27.343750
7636,-27.343750
7637,-27.343750
7638,-27.343750
7639,-27.343750
7640,-27.343750
7641,-23.437500
7642,-27.343750
7643,-27.343750
7644,-27.343750
7645,-27.343750
7646,-27.343750
7647,-27.343750
7648,-27.343750
7649,-27.343750
7650,-27.343750
7651,-27.343750
7652,-27.343750
7653,-27.343750
7654,-27.343750
7655,-27.343750
7656,-27.343750
7657,-27.343750
7658,-27.343750
7659,-27.343750
7660,-27.343750
7661,-27.343750
7662,-27.343750
7663,-27.343750
7664,-27.343750
7665,-31.250000
7666,-31.250000
7667,-31.250000
7668,-31.250000
7669,-31.250000
7670,-27.343750
7671,-27.343750
7672,-31.250000
7673,-31.250000
7674,-31.250000
7675,-31.250000
7676,-31.250000
7677,-31.250000
7678,-31.250000
7679,-31.250000
7680,-35.156250
7681,-31.250000
7682,-31.250000
7683,-31.250000
7684,-31.250000
7685,-31.250000
7686,-31.250000
7687,-31.250000
7688,-31.250000
7689,-31.250000
7690,-31.250000
7691,-31.250000
7692,-31.250000
7693,-31.250000
7694,-31.250000
7695,-31.250000
7696,-31.250000
7697,-31.250000
7698,-31.250000
7699,-31.250000
7700,-35.156250
7701,-31.250000
7702,-31.250000
7703,-31.250000
7704,-31.250000
7705,-31.250000
7706,-31.250000
7707,-31.250000
7708,-31.250000
7709,-31.250000
7710,-35.156250
7711,-31.250000
7712,-35.156250
7713,-35.156250
7714,-35.156250
7715,-35.156250
7716,-35.156250
7717,-35.156250
7718,-35.156250
7719,-31.250000
7720,-35.156250
7721,-35.156250
7722,-35.156250
7723,-35.156250
7724,-35.156250
7725,-35.156250
7726,-35.156250
7727,-35.156250
7728,-35.156250
7729,-35.156250
7730,-35.156250
7731,-35.156250
7732,-35.156250
7733,-35.156250
7734,-35.156250
7735,-35.156250
7736,-35.156250
7737,-35.156250
7738,-35.156250
7739,-35.156250
7740,-35.156250
7741,-35.156250
7742,-35.156250
7743,-35.156250
7744,-35.156250
7745,-35.156250
7746,-35.156250
7747,-35.156250
7748,-35.156250
7749,-35.156250
7750,-35.156250
7751,-35.156250
7752,-35.156250
7753,-35.156250
7754,-35.156250
7755,-35.156250
7756,-35.156250
7757,-35.156250
7758,-35.156250
7759,-35.156250
7760,-35.156250
7761,-35.156250
7762,-35.156250
7763,-35.156250
7764,-35.156250
7765,-35.156250
7766,-35.156250
7767,-35.156250
7768,-35.156250
7769,-35.156250
7770,-35.156250
7771,-35.156250
7772,-35.156250
7773,-35.156250
7774,-35.156250
7775,-35.156250
7776,-35.156250
7777,-35.156250
7778,-35.156250
7779,-35.156250
7780,-35.156250
7781,-35.156250
7782,-35.156250
7783,-35.156250
7784,-35.156250
7785,-35.156250
7786,-35.156250
7787,-35.156250
7788,-35.156250
7789,-35.156250
7790,-35.156250
7791,-35.156250
7792,-35.156250
7793,-35.156250
7794,-35.156250
7795,-35.156250
7796,-35.156250
7797,-35.156250
7798,-35.156250
7799,-35.156250
7800,-35.156250
7801,-35.156250
7802,-35.156250
7803,-35.156250
7804,-35.156250
7805,-35.156250
7806,-35.156250
7807,-35.156250
7808,-35.156250
7809,-35.156250
7810,-35.156250
7811,-35.156250
7812,-35.156250
7813,-35.156250
7814,-35.156250
7815,-35.156250
7816,-35.156250
7817,-35.156250
7818,-35.156250
7819,-35.156250
7820,-35.156250
7821,-35.156250
7822,-35.156250
7823,-35.156250
7824,-35.156250
7825,-35.156250
7826,-35.156250
7827,-35.156250
7828,-35.156250
7829,-35.156250
7830,-35.156250
7831,-35.156250
7832,-35.156250
7833,-35.156250
7834,-35.156250
7835,-35.156250
7836,-35.156250
7837,-35.156250
7838,-35.156250
7839,-35.156250
7840,-35.156250
7841,-35.156250
7842,-35.156250
7843,-35.156250
7844,-35.156250
7845,-35.156250
7846,-35.156250
7847,-35.156250
7848,-31.250000
7849,-31.250000
7850,-35.156250
7851,-35.156250
7852,-35.156250
7853,-35.156250
7854,-35.156250
7855,-31.250000
7856,-31.250000
7857,-31.250000
7858,-31.250000
7859,-31.250000
7860,-31.250000
7861,-31.250000
7862,-35.156250
7863,-35.156250
7864,-31.250000
7865,-31.250000
7866,-31.250000
7867,-31.250000
7868,-31.250000
7869,-31.250000
7870,-31.250000
7871,-31.250000
7872,-31.250000
7873,-31.250000
7874,-35.156250
7875,-31.250000
7876,-31.250000
7877,-31.250000
7878,-31.250000
7879,-31.250000
7880,-31.250000
7881,-31.250000
7882,-31.250000
7883,-31.250000
7884,-31.250000
7885,-31.250000
7886,-31.250000
7887,-31.250000
7888,-31.250000
7889,-31.250000
7890,-31.250000
7891,-31.250000
7892,-31.250000
7893,-31.250000
7894,-31.250000
7895,-31.250000
7896,-31.250000
7897,-31.250000
7898,-27.343750
7899,-27.343750
7900,-27.343750
7901,-27.343750
7902,-27.343750
7903,-31.250000
7904,-31.250000
7905,-31.250000
7906,-27.343750
7907,-27.343750
7908,-27.343750
7909,-27.343750
7910,-27.343750
7911,-27.343750
7912,-27.343750
7913,-27.343750
7914,-27.343750
7915,-27.343750
7916,-27.343750
7917,-27.343750
7918,-27.343750
7919,-27.343750
7920,-27.343750
7921,-27.343750
7922,-27.343750
7923,-27.343750
7924,-27.343750
7925,-27.343750
7926,-27.343750
7927,-27.343750
7928,-27.343750
7929,-27.343750
7930,-27.343750
7931,-23.437500
7932,-27.343750
7933,-27.343750
7934,-23.437500
7935,-23.437500
7936,-23.437500
7937,-23.437500
7938,-23.437500
7939,-23.437500
7940,-23.437500
7941,-23.437500
7942,-23.437500
7943,-23.437500
7944,-23.437500
7945,-23.437500
7946,-23.437500
7947,-23.437500
7948,-23.437500
7949,-23.437500
7950,-23.437500
7951,-23.437500
7952,-23.437500
7953,-23.437500
7954,-23.437500
7955,-23.437500
7956,-23.437500
7957,-19.531250
7958,-23.437500
7959,-23.437500
7960,-23.437500
7961,-23.437500
7962,-23.437500
7963,-19.531250
7964,-19.531250
7965,-19.531250
7966,-19.531250
7967,-19.531250
7968,-19.531250
7969,-19.531250
7970,-19.531250
7971,-19.531250
7972,-19.531250
7973,-19.531250
7974,-19.531250
7975,-19.531250
7976,-19.531250
7977,-19.531250
7978,-15.625000
7979,-19.531250
7980,-19.531250
7981,-15.625000
7982,-19.531250
7983,-19.531250
7984,-19.531250
7985,-15.625000
7986,-19.531250
7987,-15.625000
7988,-15.625000
7989,-15.625000
7990,-15.625000
7991,-15.625000
7992,-15.625000
7993,-15.625000
7994,-15.625000
7995,-15.625000
7996,-15.625000
7997,-15.625000
7998,-15.625000
7999,-15.625000
8000,-15.625000
8001,-15.625000
8002,-15.625000
8003,-15.625000
8004,-15.625000
8005,-15.625000
8006,-15.625000
8007,-11.718750
8008,-15.625000
8009,-15.625000
8010,-15.625000
8011,-11.718750
8012,-15.625000
8013,-15.625000
8014,-15.625000
8015,-11.718750
8016,-11.718750
8017,-11.718750
8018,-11.718750
8019,-11.718750
8020,-11.718750
8021,-11.718750
8022,-11.718750
8023,-11.718750
8024,-11.718750
8025,-11.718750
8026,-11.718750
8027,-11.718750
8028,-11.718750
8029,-11.718750
8030,-11.718750
8031,-11.718750
8032,-11.718750
8033,-11.718750
8034,-11.718750
8035,-11.718750
8036,-11.718750
8037,-11.718750
8038,-11.718750
8039,-11.718750
8040,-11.718750
8041,-7.812500
8042,-7.812500
8043,-7.812500
8044,-7.812500
8045,-7.812500
8046,-7.812500
8047,-7.812500
8048,-7.812500
8049,-7.812500
8050,-7.812500
8051,-7.812500
8052,-7.812500
8053,-7.812500
8054,-7.812500
8055,-7.812500
8056,-7.812500
8057,-7.812500
8058,-7.812500
8059,-7.812500
8060,-7.812500
8061,-7.812500
8062,-7.812500
8063,-7.812500
8064,-3.906250
8065,-3.906250
8066,-7.812500
8067,-3.906250
8068,-3.906250
8069,-3.906250
8070,-3.906250
8071,-3.906250
8072,-3.906250
8073,-3.906250
8074,-3.906250
8075,-3.906250
8076,0.000000
8077,-3.906250
8078,-3.906250
8079,-3.906250
8080,-3.906250
8081,-3.906250
8082,-3.906250
8083,-3.906250
8084,-3.906250
8085,-3.906250
8086,-3.906250
8087,-3.906250
8088,-3.906250
8089,-3.906250
8090,0.000000
8091,-3.906250
8092,-3.906250
8093,0.000000
8094,-3.906250
8095,0.000000
8096,0.000000
8097,0.000000
8098,0.000000
8099,0.000000
8100,0.000000
8101,-3.906250
8102,0.000000
8103,0.000000
8104,0.000000
8105,0.000000
8106,0.000000
8107,0.000000
8108,0.000000
8109,0.000000
8110,0.000000
8111,0.000000
8112,0.000000
8113,0.000000
8114,0.000000
8115,0.000000
8116,0.000000
8117,3.906250
8118,0.000000
8119,0.000000
8120,0.000000
8121,0.000000
8122,0.000000
8123,0.000000
8124,0.000000
8125,0.000000
8126,3.906250
8127,3.906250
8128,3.906250
8129,3.906250
8130,0.000000
8131,0.000000
8132,0.000000
8133,3.906250
8134,0.000000
8135,3.906250
8136,3.906250
8137,3.906250
8138,3.906250
8139,3.906250
8140,3.906250
8141,3.906250
8142,3.906250
8143,3.906250
8144,3.906250
8145,3.906250
8146,3.906250
8147,3.906250
8148,3.906250
8149,3.906250
8150,3.906250
8151,3.906250
8152,3.906250
8153,3.906250
8154,3.906250
8155,3.906250
8156,3.906250
8157,3.906250
8158,3.906250
8159,3.906250
8160,3.906250
8161,3.906250
8162,3.906250
8163,3.906250
8164,3.906250
8165,3.906250
8166,3.906250
8167,3.906250
8168,3.906250
8169,3.906250
8170,3.906250
8171,7.812500
8172,7.812500
8173,3.906250
8174,7.812500
8175,7.812500
8176,7.812500
8177,7.812500
8178,7.812500
8179,7.812500
8180,3.906250
8181,7.812500
8182,7.812500
8183,7.812500
8184,7.812500
8185,7.812500
8186,7.812500
8187,7.812500
8188,7.812500
8189,7.812500
8190,7.812500
8191,7.812500
8192,7.812500
8193,7.812500
8194,7.812500
8195,7.812500
8196,7.812500
8197,7.812500
8198,7.812500
8199,7.812500
8200,7.812500
8201,7.812500
8202,7.812500
8203,7.812500
8204,7.812500
8205,7.812500
8206,7.812500
8207,7.812500
8208,7.812500
8209,7.812500
8210,7.812500
8211,7.812500
8212,7.812500
8213,7.812500
8214,7.812500
8215,7.812500
8216,7.812500
8217,7.812500
8218,7.812500
8219,7.812500
8220,7.812500
8221,7.812500
8222,7.812500
8223,7.812500
8224,7.812500
8225,11.718750
8226,7.812500
8227,7.812500
8228,7.812500
8229,7.812500
8230,7.812500
8231,7.812500
8232,7.812500
8233,11.718750
8234,11.718750
8235,11.718750
8236,11.718750
8237,7.812500
8238,7.812500
8239,11.718750
8240,7.812500
8241,7.812500
8242,11.718750
8243,7.812500
8244,11.718750
8245,11.718750
8246,11.718750
8247,11.718750
8248,11.718750
8249,11.718750
8250,11.718750
8251,7.812500
8252,7.812500
8253,11.718750
8254,11.718750
8255,11.718750
8256,11.718750
8257,11.718750
8258,7.812500
8259,11.718750
8260,7.812500
8261,7.812500
8262,7.812500
8263,11.718750
8264,11.718750
8265,11.718750
8266,11.718750
8267,11.718750
8268,11.718750
8269,7.812500
8270,11.718750
8271,11.718750
8272,11.718750
8273,11.718750
8274,11.718750
8275,11.718750
8276,11.718750
8277,11.718750
8278,11.718750
8279,11.718750
8280,11.718750
8281,11.718750
8282,7.812500
8283,11.718750
8284,7.812500
8285,11.718750
8286,7.812500
8287,7.812500
8288,7.812500
8289,7.812500
8290,11.718750
8291,11.718750
8292,11.718750
8293,11.718750
8294,11.718750
8295,11.718750
8296,7.812500
8297,7.812500
8298,11.718750
8299,7.812500
8300,11.718750
8301,11.718750
8302,11.718750
8303,7.812500
8304,7.812500
8305,7.812500
8306,7.812500
8307,7.812500
8308,7.812500
8309,7.812500
8310,7.812500
8311,7.812500
8312,7.812500
8313,7.812500
8314,7.812500
8315,7.812500
8316,7.812500
8317,7.812500
8318,7.812500
8319,7.812500
8320,7.812500
8321,7.812500
8322,7.812500
8323,7.812500
8324,7.812500
8325,7.812500
8326,7.812500
8327,7.812500
8328,7.812500
8329,7.812500
8330,7.812500
8331,7.812500
8332,7.812500
8333,7.812500
8334,7.812500
8335,7.812500
8336,7.812500
8337,7.812500
8338,7.812500
8339,7.812500
8340,7.812500
8341,7.812500
8342,7.812500
8343,7.812500
8344,7.812500
8345,7.812500
8346,7.812500
8347,7.812500
8348,7.812500
8349,7.812500
8350,7.812500
8351,7.812500
8352,7.812500
8353,7.812500
8354,7.812500
8355,7.812500
8356,7.812500
8357,7.812500
8358,7.812500
8359,7.812500
8360,7.812500
8361,7.812500
8362,7.812500
8363,7.812500
8364,7.812500
8365,7.812500
8366,7.812500
8367,7.812500
8368,7.812500
8369,7.812500
8370,7.812500
8371,3.906250
8372,7.812500
8373,7.812500
8374,7.812500
8375,7.812500
8376,3.906250
8377,7.812500
8378,3.906250
8379,3.906250
8380,3.906250
8381,3.906250
8382,3.906250
8383,3.906250
8384,3.906250
8385,3.906250
8386,3.906250
8387,3.906250
8388,3.906250
8389,3.906250
8390,3.906250
8391,3.906250
8392,3.906250
8393,3.906250
8394,3.906250
8395,3.906250
8396,3.906250
8397,3.906250
8398,3.906250
8399,3.906250
8400,3.906250
8401,3.906250
8402,3.906250
8403,3.906250
8404,3.906250
8405,3.906250
8406,3.906250
8407,3.906250
8408,3.906250
8409,3.906250
8410,3.906250
8411,3.906250
8412,3.906250
8413,3.906250
8414,3.906250
8415,0.000000
8416,0.000000
8417,3.906250
8418,3.906250
8419,0.000000
8420,0.000000
8421,0.000000
8422,0.000000
8423,3.906250
8424,0.000000
8425,0.000000
8426,0.000000
8427,0.000000
8428,0.000000
8429,0.000000
8430,0.000000
8431,0.000000
8432,0.000000
8433,0.000000
8434,0.000000
8435,0.000000
8436,0.000000
8437,0.000000
8438,0.000000
8439,0.000000
8440,0.000000
8441,0.000000
8442,0.000000
8443,0.000000
8444,0.000000
8445,-3.906250
8446,0.000000
8447,-3.906250
8448,-3.906250
8449,0.000000
8450,-3.906250
8451,-3.906250
8452,0.000000
8453,0.000000
8454,-3.906250
8455,-3.906250
8456,-3.906250
8457,-3.906250
8458,-3.906250
8459,-3.906250
8460,-3.906250
8461,-3.906250
8462,-3.906250
8463,-3.906250
8464,-3.906250
8465,-3.906250
8466,-3.906250
8467,-3.906250
8468,-3.906250
8469,-3.906250
8470,-3.906250
8471,-3.906250
8472,-3.906250
8473,-3.906250
8474,-3.906250
8475,-3.906250
8476,-3.906250
8477,-3.906250
8478,-3.906250
8479,-3.906250
8480,-3.906250
8481,-3.906250
8482,-7.812500
8483,-3.906250
8484,-3.906250
8485,-3.906250
8486,-7.812500
8487,-7.812500
8488,-7.812500
8489,-7.812500
8490,-7.812500
8491,-7.812500
8492,-7.812500
8493,-7.812500
8494,-7.812500
8495,-7.812500
8496,-7.812500
8497,-7.812500
8498,-7.812500
8499,-7.812500
8500,-7.812500
8501,-7.812500
8502,-7.812500
8503,-7.812500
8504,-7.812500
8505,-7.812500
8506,-7.812500
8507,-7.812500
8508,-7.812500
8509,-7.812500
8510,-7.812500
8511,-7.812500
8512,-11.718750
8513,-11.718750
8514,-7.812500
8515,-11.718750
8516,-11.718750
8517,-7.812500
8518,-11.718750
8519,-11.718750
8520,-11.718750
8521,-11.718750
8522,-11.718750
8523,-11.718750
8524,-11.718750
8525,-11.718750
8526,-11.718750
8527,-11.718750
8528,-11.718750
8529,-11.718750
8530,-11.718750
8531,-11.718750
8532,-11.718750
8533,-11.718750
8534,-11.718750
8535,-11.718750
8536,-15.625000
8537,-15.625000
8538,-11.718750
8539,-15.625000
8540,-11.718750
8541,-15.625000
8542,-15.625000
8543,-15.625000
8544,-15.625000
8545,-15.625000
8546,-15.625000
8547,-15.625000
8548,-15.625000
8549,-15.625000
8550,-15.625000
8551,-15.625000
8552,-15.625000
8553,-15.625000
8554,-15.625000
8555,-15.625000
8556,-15.625000
8557,-15.625000
8558,-15.625000
8559,-15.625000
8560,-15.625000
8561,-15.625000
8562,-15.625000
8563,-15.625000
8564,-15.625000
8565,-19.531250
8566,-19.531250
8567,-19.531250
8568,-19.531250
8569,-19.531250
8570,-19.531250
8571,-19.531250
8572,-19.531250
8573,-19.531250
8574,-19.531250
8575,-19.531250
8576,-19.531250
8577,-19.531250
8578,-19.531250
8579,-19.531250
8580,-19.531250
8581,-19.531250
8582,-19.531250
8583,-19.531250
8584,-19.531250
8585,-19.531250
8586,-19.531250
8587,-19.531250
8588,-19.531250
8589,-19.531250
8590,-19.531250
8591,-19.531250
8592,-19.531250
8593,-19.531250
8594,-23.437500
8595,-23.437500
8596,-23.437500
8597,-23.437500
8598,-23.437500
8599,-23.437500
8600,-23.437500
8601,-23.437500
8602,-23.437500
8603,-23.437500
8604,-23.437500
8605,-23.437500
8606,-23.437500
8607,-23.437500
8608,-23.437500
8609,-23.437500
8610,-23.437500
8611,-23.437500
8612,-23.437500
8613,-23.437500
8614,-23.437500
8615,-23.437500
8616,-23.437500
8617,-23.437500
8618,-23.437500
8619,-23.437500
8620,-23.437500
8621,-23.437500
8622,-23.437500
8623,-23.437500
8624,-27.343750
8625,-27.343750
8626,-27.343750
8627,-23.437500
8628,-27.343750
8629,-23.437500
8630,-27.343750
8631,-27.343750
8632,-27.343750
8633,-27.343750
8634,-27.343750
8635,-27.343750
8636,-27.343750
8637,-27.343750
8638,-27.343750
8639,-27.343750
8640,-27.343750
8641,-27.343750
8642,-27.343750
8643,-27.343750
8644,-27.343750
8645,-27.343750
8646,-27.343750
8647,-27.343750
8648,-27.343750
8649,-27.343750
8650,-27.343750
8651,-27.343750
8652,-27.343750
8653,-27.343750
8654,-31.250000
8655,-31.250000
8656,-31.250000
8657,-27.343750
8658,-27.343750
8659,-27.343750
8660,-27.343750
8661,-27.343750
8662,-31.250000
8663,-31.250000
8664,-31.250000
8665,-31.250000
8666,-31.250000
8667,-31.250000
8668,-31.250000
8669,-31.250000
8670,-31.250000
8671,-31.250000
8672,-31.250000
8673,-31.250000
8674,-31.250000
8675,-31.250000
8676,-31.250000
8677,-31.250000
8678,-31.250000
8679,-31.250000
8680,-31.250000
8681,-31.250000
8682,-31.250000
8683,-31.250000
8684,-31.250000
8685,-31.250000
8686,-31.250000
8687,-31.250000
8688,-31.250000
8689,-31.250000
8690,-31.250000
8691,-31.250000
8692,-31.250000
8693,-31.250000
8694,-31.250000
8695,-31.250000
8696,-31.250000
8697,-31.250000
8698,-31.250000
8699,-31.250000
8700,-31.250000
8701,-31.250000
8702,-35.156250
8703,-31.250000
8704,-35.156250
8705,-35.156250
8706,-31.250000
8707,-35.156250
8708,-35.156250
8709,-35.156250
8710,-31.250000
8711,-35.156250
8712,-35.156250
8713,-35.156250
8714,-35.156250
8715,-35.156250
8716,-35.156250
8717,-35.156250
8718,-35.156250
8719,-35.156250
8720,-35.156250
8721,-35.156250
8722,-35.156250
8723,-35.156250
8724,-35.156250
8725,-35.156250
8726,-35.156250
8727,-35.156250
8728,-35.156250
8729,-35.156250
8730,-35.156250
8731,-35.156250
8732,-35.156250
8733,-35.156250
8734,-35.156250
8735,-35.156250
8736,-35.156250
8737,-35.156250
8738,-35.156250
8739,-35.156250
8740,-35.156250
8741,-35.156250
8742,-35.156250
8743,-35.156250
8744,-35.156250
8745,-35.156250
8746,-35.156250
8747,-35.156250
8748,-35.156250
8749,-35.156250
8750,-35.156250
8751,-35.156250
8752,-35.156250
8753,-35.156250
8754,-35.156250
8755,-35.156250
8756,-35.156250
8757,-35.156250
8758,-35.156250
8759,-35.156250
8760,-35.156250
8761,-35.156250
8762,-35.156250
8763,-35.156250
8764,-35.156250
8765,-35.156250
8766,-35.156250
8767,-35.156250
8768,-35.156250
8769,-35.156250
8770,-35.156250
8771,-35.156250
8772,-35.156250
8773,-35.156250
8774,-35.156250
8775,-35.156250
8776,-35.156250
8777,-35.156250
8778,-35.156250
8779,-35.156250
8780,-35.156250
8781,-35.156250
8782,-35.156250
8783,-35.156250
8784,-35.156250
8785,-35.156250
8786,-35.156250
8787,-35.156250
8788,-35.156250
8789,-35.156250
8790,-35.156250
8791,-35.156250
8792,-35.156250
8793,-35.156250
8794,-35.156250
8795,-35.156250
8796,-35.156250
8797,-35.156250
8798,-35.156250
8799,-35.156250
8800,-35.156250
8801,-35.156250
8802,-35.156250
8803,-35.156250
8804,-35.156250
8805,-35.156250
8806,-35.156250
8807,-35.156250
8808,-35.156250
8809,-35.156250
8810,-35.156250
8811,-35.156250
8812,-35.156250
8813,-35.156250
8814,-35.156250
8815,-35.156250
8816,-35.156250
8817,-35.156250
8818,-35.156250
8819,-35.156250
8820,-35.156250
8821,-35.156250
8822,-35.156250
8823,-35.156250
8824,-35.156250
8825,-35.156250
8826,-35.156250
8827,-35.156250
8828,-35.156250
8829,-35.156250
8830,-35.156250
8831,-35.156250
8832,-35.156250
8833,-35.156250
8834,-35.156250
8835,-35.156250
8836,-35.156250
8837,-35.156250
8838,-35.156250
8839,-35.156250
8840,-35.156250
8841,-35.156250
8842,-35.156250
8843,-35.156250
8844,-35.156250
8845,-35.156250
8846,-31.250000
8847,-31.250000
8848,-35.156250
8849,-31.250000
8850,-31.250000
8851,-31.250000
8852,-31.250000
8853,-31.250000
8854,-31.250000
8855,-31.250000
8856,-31.250000
8857,-31.250000
8858,-31.250000
8859,-31.250000
8860,-31.250000
8861,-31.250000
8862,-31.250000
8863,-31.250000
8864,-31.250000
8865,-31.250000
8866,-31.250000
8867,-31.250000
8868,-31.250000
8869,-31.250000
8870,-31.250000
8871,-31.250000
8872,-31.250000
8873,-31.250000
8874,-31.250000
8875,-31.250000
8876,-31.250000
8877,-31.250000
8878,-31.250000
8879,-31.250000
8880,-31.250000
8881,-31.250000
8882,-31.250000
8883,-31.250000
8884,-31.250000
8885,-27.343750
8886,-27.343750
8887,-27.343750
8888,-31.250000
8889,-27.343750
8890,-31.250000
8891,-27.343750
8892,-27.343750
8893,-27.343750
8894,-27.343750
8895,-27.343750
8896,-27.343750
8897,-27.343750
8898,-27.343750
8899,-27.343750
8900,-27.343750
8901,-27.343750
8902,-27.343750
8903,-27.343750
8904,-27.343750
8905,-27.343750
8906,-27.343750
8907,-27.343750
8908,-27.343750
8909,-27.343750
8910,-27.343750
8911,-27.343750
8912,-27.343750
8913,-27.343750
8914,-27.343750
8915,-27.343750
8916,-27.343750
8917,-27.343750
8918,-27.343750
8919,-27.343750
8920,-27.343750
8921,-27.343750
8922,-27.343750
8923,-27.343750
8924,-27.343750
8925,-23.437500
8926,-23.437500
8927,-23.437500
8928,-23.437500
8929,-23.437500
8930,-23.437500
8931,-23.437500
8932,-23.437500
8933,-23.437500
8934,-23.437500
8935,-23.437500
8936,-23.437500
8937,-23.437500
8938,-23.437500
8939,-23.437500
8940,-23.437500
8941,-23.437500
8942,-23.437500
8943,-23.437500
8944,-23.437500
8945,-23.437500
8946,-23.437500
8947,-23.437500
8948,-23.437500
8949,-19.531250
8950,-23.437500
8951,-23.437500
8952,-23.437500
8953,-23.437500
8954,-23.437500
8955,-19.531250
8956,-19.531250
8957,-19.531250
8958,-19.531250
8959,-19.531250
8960,-19.531250
8961,-19.531250
8962,-19.531250
8963,-19.531250
8964,-19.531250
8965,-19.531250
8966,-19.531250
8967,-19.531250
8968,-19.531250
8969,-19.531250
8970,-19.531250
8971,-19.531250
8972,-19.531250
8973,-19.531250
8974,-19.531250
8975,-19.531250
8976,-19.531250
8977,-15.625000
8978,-19.531250
8979,-15.625000
8980,-19.531250
8981,-15.625000
8982,-15.625000
8983,-15.625000
8984,-15.625000
8985,-15.625000
8986,-15.625000
8987,-15.625000
8988,-15.625000
8989,-15.625000
8990,-15.625000
8991,-15.625000
8992,-15.625000
8993,-15.625000
8994,-15.625000
8995,-15.625000
8996,-15.625000
8997,-15.625000
8998,-15.625000
8999,-15.625000
9000,-15.625000
9001,-15.625000
9002,-15.625000
9003,-11.718750
9004,-11.718750
9005,-11.718750
9006,-11.718750
9007,-11.718750
9008,-11.718750
9009,-11.718750
9010,-11.718750
9011,-11.718750
9012,-11.718750
9013,-11.718750
9014,-11.718750
9015,-11.718750
9016,-11.718750
9017,-11.718750
9018,-11.718750
9019,-11.718750
9020,-11.718750
9021,-11.718750
9022,-11.718750
9023,-11.718750
9024,-11.718750
9025,-11.718750
9026,-11.718750
9027,-7.812500
9028,-7.812500
9029,-7.812500
9030,-11.718750
9031,-11.718750
9032,-11.718750
9033,-7.812500
9034,-7.812500
9035,-7.812500
9036,-7.812500
9037,-7.812500
9038,-7.812500
9039,-7.812500
9040,-7.812500
9041,-7.812500
9042,-7.812500
9043,-7.812500
9044,-7.812500
9045,-7.812500
9046,-7.812500
9047,-7.812500
9048,-7.812500
9049,-7.812500
9050,-7.812500
9051,-7.812500
9052,-7.812500
9053,-7.812500
9054,-7.812500
9055,-3.906250
9056,-3.906250
9057,-3.906250
9058,-3.906250
9059,-3.906250
9060,-3.906250
9061,-3.906250
9062,-3.906250
9063,-3.906250
9064,-3.906250
9065,-3.906250
9066,-3.906250
9067,-3.906250
9068,-3.906250
9069,-3.906250
9070,-3.906250
9071,-3.906250
9072,-3.906250
9073,-3.906250
9074,-3.906250
9075,-3.906250
9076,-3.906250
9077,-3.906250
9078,-3.906250
9079,-3.906250
9080,-3.906250
9081,-3.906250
9082,-3.906250
9083,-3.906250
9084,-3.906250
9085,-3.906250
9086,0.000000
9087,0.000000
9088,0.000000
9089,0.000000
9090,0.000000
9091,0.000000
9092,0.000000
9093,0.000000
9094,0.000000
9095,0.000000
9096,0.000000
9097,0.000000
9098,0.000000
9099,0.000000
9100,0.000000
9101,0.000000
9102,0.000000
9103,0.000000
9104,0.000000
9105,0.000000
9106,0.000000
9107,0.000000
9108,0.000000
9109,0.000000
9110,0.000000
9111,0.000000
9112,0.000000
9113,0.000000
9114,0.000000
9115,3.906250
9116,0.000000
9117,0.000000
9118,0.000000
9119,0.000000
9120,3.906250
9121,3.906250
9122,3.906250
9123,3.906250
9124,3.906250
9125,3.906250
9126,3.906250
9127,3.906250
9128,3.906250
9129,3.906250
9130,3.906250
9131,3.906250
9132,3.906250
9133,3.906250
9134,3.906250
9135,3.906250
9136,3.906250
9137,3.906250
9138,3.906250
9139,3.906250
9140,3.906250
9141,3.906250
9142,3.906250
9143,3.906250
9144,3.906250
9145,3.906250
9146,3.906250
9147,3.906250
9148,3.906250
9149,3.906250
9150,3.906250
9151,3.906250
9152,3.906250
9153,3.906250
9154,7.812500
9155,7.812500
9156,3.906250
9157,3.906250
9158,7.812500
9159,3.906250
9160,3.906250
9161,3.906250
9162,7.812500
9163,7.812500
9164,7.812500
9165,7.812500
9166,7.812500
9167,7.812500
9168,7.812500
9169,7.812500
9170,7.812500
9171,7.812500
9172,7.812500
9173,7.812500
9174,7.812500
9175,7.812500
9176,7.812500
9177,7.812500
9178,7.812500
9179,7.812500
9180,7.812500
9181,7.812500
9182,7.812500
9183,7.812500
9184,7.812500
9185,7.812500
9186,7.812500
9187,7.812500
9188,7.812500
9189,7.812500
9190,7.812500
9191,7.812500
9192,7.812500
9193,7.812500
9194,7.812500
9195,7.812500
9196,7.812500
9197,7.812500
9198,7.812500
9199,7.812500
9200,7.812500
9201,7.812500
9202,7.812500
9203,7.812500
9204,7.812500
9205,7.812500
9206,7.812500
9207,7.812500
9208,7.812500
9209,7.812500
9210,7.812500
9211,7.812500
9212,7.812500
9213,7.812500
9214,7.812500
9215,7.812500
9216,7.812500
9217,7.812500
9218,7.812500
9219,7.812500
9220,7.812500
9221,11.718750
9222,7.812500
9223,7.812500
9224,7.812500
9225,7.812500
9226,7.812500
9227,7.812500
9228,11.718750
9229,11.718750
9230,11.718750
9231,7.812500
9232,7.812500
9233,11.718750
9234,11.718750
9235,11.718750
9236,11.718750
9237,7.812500
9238,7.812500
9239,11.718750
9240,11.718750
9241,11.718750
9242,11.718750
9243,11.718750
9244,7.812500
9245,11.718750
9246,11.718750
9247,11.718750
9248,11.718750
9249,11.718750
9250,11.718750
9251,11.718750
9252,11.718750
9253,11.718750
9254,11.718750
9255,11.718750
9256,11.718750
9257,11.718750
9258,11.718750
9259,11.718750
9260,7.812500
9261,11.718750
9262,11.718750
9263,11.718750
9264,11.718750
9265,11.718750
9266,11.718750
9267,7.812500
9268,11.718750
9269,11.718750
9270,11.718750
9271,11.718750
9272,11.718750
9273,11.718750
9274,11.718750
9275,11.718750
9276,11.718750
9277,11.718750
9278,11.718750
9279,11.718750
9280,11.718750
9281,11.718750
9282,11.718750
9283,11.718750
9284,11.718750
9285,11.718750
9286,11.718750
9287,11.718750
9288,7.812500
9289,7.812500
9290,7.812500
9291,11.718750
9292,11.718750
9293,11.718750
9294,11.718750
9295,7.812500
9296,7.812500
9297,7.812500
9298,7.812500
9299,7.812500
9300,7.812500
9301,7.812500
9302,11.718750
9303,7.812500
9304,7.812500
9305,7.812500
9306,7.812500
9307,7.812500
9308,7.812500
9309,7.812500
9310,7.812500
9311,7.812500
9312,7.812500
9313,7.812500
9314,7.812500
9315,7.812500
9316,7.812500
9317,7.812500
9318,7.812500
9319,7.812500
9320,7.812500
9321,7.812500
9322,7.812500
9323,7.812500
9324,7.812500
9325,7.812500
9326,7.812500
9327,7.812500
9328,7.812500
9329,11.718750
9330,7.812500
9331,7.812500
9332,7.812500
9333,7.812500
9334,7.812500
9335,7.812500
9336,7.812500
9337,7.812500
9338,7.812500
9339,7.812500
9340,7.812500
9341,7.812500
9342,7.812500
9343,7.812500
9344,7.812500
9345,7.812500
9346,7.812500
9347,7.812500
9348,7.812500
9349,7.812500
9350,7.812500
9351,7.812500
9352,7.812500
9353,7.812500
9354,7.812500
9355,7.812500
9356,3.906250
9357,3.906250
9358,7.812500
9359,7.812500
9360,7.812500
9361,3.906250
9362,3.906250
9363,3.906250
9364,3.906250
9365,7.812500
9366,3.906250
9367,3.906250
9368,3.906250
9369,3.906250
9370,3.906250
9371,3.906250
9372,3.906250
9373,3.906250
9374,3.906250
9375,3.906250
9376,3.906250
9377,3.906250
9378,3.906250
9379,3.906250
9380,3.906250
9381,3.906250
9382,3.906250
9383,3.906250
9384,3.906250
9385,3.906250
9386,3.906250
9387,3.906250
9388,3.906250
9389,3.906250
9390,3.906250
9391,3.906250
9392,3.906250
9393,3.906250
9394,3.906250
9395,3.906250
9396,3.906250
9397,3.906250
9398,3.906250
9399,3.906250
9400,3.906250
9401,3.906250
9402,3.906250
9403,3.906250
9404,3.906250
9405,3.906250
9406,0.000000
9407,0.000000
9408,0.000000
9409,0.000000
9410,3.906250
9411,3.906250
9412,0.000000
9413,0.000000
9414,0.000000
9415,0.000000
9416,0.000000
9417,0.000000
9418,0.000000
9419,0.000000
9420,0.000000
9421,0.000000
9422,0.000000
9423,0.000000
9424,0.000000
9425,0.000000
9426,0.000000
9427,0.000000
9428,0.000000
9429,0.000000
9430,0.000000
9431,0.000000
9432,0.000000
9433,0.000000
9434,0.000000
9435,0.000000
9436,0.000000
9437,0.000000
9438,-3.906250
9439,0.000000
9440,0.000000
9441,0.000000
9442,0.000000
9443,0.000000
9444,-3.906250
9445,-3.906250
9446,-3.906250
9447,-3.906250
9448,-3.906250
9449,-3.906250
9450,-3.906250
9451,-3.906250
9452,-3.906250
9453,-3.906250
9454,-3.906250
9455,-3.906250
9456,-3.906250
9457,-3.906250
9458,-3.906250
9459,-3.906250
9460,-3.906250
9461,-3.906250
9462,-3.906250
9463,-3.906250
9464,-3.906250
9465,-3.906250
9466,-3.906250
9467,-3.906250
9468,-7.812500
9469,-7.812500
9470,-7.812500
9471,-3.906250
9472,-7.812500
9473,-7.812500
9474,-7.812500
9475,-7.812500
9476,-7.812500
9477,-7.812500
9478,-7.812500
9479,-7.812500
9480,-7.812500
9481,-7.812500
9482,-7.812500
9483,-7.812500
9484,-7.812500
9485,-7.812500
9486,-7.812500
9487,-7.812500
9488,-7.812500
9489,-7.812500
9490,-7.812500
9491,-7.812500
9492,-11.718750
9493,-7.812500
9494,-7.812500
9495,-7.812500
9496,-7.812500
9497,-7.812500
9498,-7.812500
9499,-7.812500
9500,-11.718750
9501,-11.718750
9502,-11.718750
9503,-11.718750
9504,-11.718750
9505,-11.718750
9506,-11.718750
9507,-11.718750
9508,-11.718750
9509,-11.718750
9510,-11.718750
9511,-11.718750
9512,-11.718750
9513,-11.718750
9514,-11.718750
9515,-11.718750
9516,-11.718750
9517,-11.718750
9518,-11.718750
9519,-11.718750
9520,-11.718750
9521,-11.718750
9522,-11.718750
9523,-11.718750
9524,-11.718750
9525,-11.718750
9526,-11.718750
9527,-11.718750
9528,-11.718750
9529,-11.718750
9530,-11.718750
9531,-11.718750
9532,-15.625000
9533,-15.625000
9534,-15.625000
9535,-15.625000
9536,-15.625000
9537,-15.625000
9538,-15.625000
9539,-15.625000
9540,-15.625000
9541,-15.625000
9542,-15.625000
9543,-15.625000
9544,-15.625000
9545,-15.625000
9546,-15.625000
9547,-15.625000
9548,-15.625000
9549,-15.625000
9550,-15.625000
9551,-19.531250
9552,-15.625000
9553,-19.531250
9554,-15.625000
9555,-19.531250
9556,-19.531250
9557,-19.531250
9558,-19.531250
9559,-15.625000
9560,-19.531250
9561,-15.625000
9562,-19.531250
9563,-19.531250
9564,-19.531250
9565,-19.531250
9566,-19.531250
9567,-19.531250
9568,-19.531250
9569,-19.531250
9570,-19.531250
9571,-19.531250
9572,-19.531250
9573,-19.531250
9574,-19.531250
9575,-19.531250
9576,-19.531250
9577,-19.531250
9578,-19.531250
9579,-19.531250
9580,-19.531250
9581,-19.531250
9582,-19.531250
9583,-23.437500
9584,-23.437500
9585,-23.437500
9586,-23.437500
9587,-23.437500
9588,-23.437500
9589,-23.437500
9590,-23.437500
9591,-23.437500
9592,-23.437500
9593,-23.437500
9594,-23.437500
9595,-23.437500
9596,-23.437500
9597,-23.437500
9598,-23.437500
9599,-23.437500
9600,-23.437500
9601,-23.437500
9602,-23.437500
9603,-23.437500
9604,-27.343750
9605,-23.437500
9606,-23.437500
9607,-23.437500
9608,-23.437500
9609,-23.437500
9610,-23.437500
9611,-23.437500
9612,-23.437500
9613,-27.343750
9614,-27.343750
9615,-23.437500
9616,-27.343750
9617,-27.343750
9618,-27.343750
9619,-27.343750
9620,-27.343750
9621,-27.343750
9622,-27.343750
9623,-27.343750
9624,-27.343750
9625,-27.343750
9626,-27.343750
9627,-27.343750
9628,-27.343750
9629,-27.343750
9630,-27.343750
9631,-27.343750
9632,-27.343750
9633,-27.343750
9634,-27.343750
9635,-27.343750
9636,-27.343750
9637,-27.343750
9638,-27.343750
9639,-27.343750
9640,-27.343750
9641,-27.343750
9642,-27.343750
9643,-27.343750
9644,-27.343750
9645,-27.343750
9646,-27.343750
9647,-27.343750
9648,-31.250000
9649,-27.343750
9650,-31.250000
9651,-27.343750
9652,-31.250000
9653,-31.250000
9654,-31.250000
9655,-31.250000
9656,-31.250000
9657,-31.250000
9658,-31.250000
9659,-31.250000
9660,-31.250000
9661,-31.250000
9662,-31.250000
9663,-31.250000
9664,-31.250000
9665,-31.250000
9666,-31.250000
9667,-31.250000
9668,-31.250000
9669,-31.250000
9670,-31.250000
9671,-31.250000
9672,-31.250000
9673,-31.250000
9674,-31.250000
9675,-31.250000
9676,-31.250000
9677,-31.250000
9678,-31.250000
9679,-31.250000
9680,-31.250000
9681,-31.250000
9682,-31.250000
9683,-31.250000
9684,-31.250000
9685,-31.250000
9686,-31.250000
9687,-31.250000
9688,-31.250000
9689,-31.250000
9690,-31.250000
9691,-31.250000
9692,-31.250000
9693,-35.156250
9694,-35.156250
9695,-35.156250
9696,-35.156250
9697,-35.156250
9698,-35.156250
9699,-35.156250
9700,-35.156250
9701,-35.156250
9702,-35.156250
9703,-35.156250
9704,-35.156250
9705,-35.156250
9706,-35.156250
9707,-35.156250
9708,-35.156250
9709,-35.156250
9710,-35.156250
9711,-35.156250
9712,-35.156250
9713,-35.156250
9714,-35.156250
9715,-35.156250
9716,-35.156250
9717,-35.156250
9718,-35.156250
9719,-35.156250
9720,-35.156250
9721,-35.156250
9722,-35.156250
9723,-35.156250
9724,-35.156250
9725,-35.156250
9726,-35.156250
9727,-35.156250
9728,-35.156250
9729,-35.156250
9730,-35.156250
9731,-35.156250
9732,-35.156250
9733,-35.156250
9734,-35.156250
9735,-35.156250
9736,-35.156250
9737,-35.156250
9738,-35.156250
9739,-35.156250
9740,-35.156250
9741,-35.156250
9742,-35.156250
9743,-35.156250
9744,-35.156250
9745,-35.156250
9746,-35.156250
9747,-35.156250
9748,-35.156250
9749,-35.156250
9750,-35.156250
9751,-35.156250
9752,-35.156250
9753,-35.156250
9754,-35.156250
9755,-35.156250
9756,-35.156250
9757,-35.156250
9758,-35.156250
9759,-35.156250
9760,-35.156250
9761,-35.156250
9762,-35.156250
9763,-35.156250
9764,-35.156250
9765,-35.156250
9766,-35.156250
9767,-35.156250
9768,-35.156250
9769,-35.156250
9770,-35.156250
9771,-35.156250
9772,-35.156250
9773,-35.156250
9774,-35.156250
9775,-35.156250
9776,-35.156250
9777,-35.156250
9778,-35.156250
9779,-35.156250
9780,-35.156250
9781,-35.156250
9782,-35.156250
9783,-35.156250
9784,-35.156250
9785,-35.156250
9786,-35.156250
9787,-35.156250
9788,-35.156250
9789,-35.156250
9790,-35.156250
9791,-35.156250
9792,-35.156250
9793,-35.156250
9794,-35.156250
9795,-35.156250
9796,-35.156250
9797,-35.156250
9798,-35.156250
9799,-35.156250
9800,-35.156250
9801,-35.156250
9802,-35.156250
9803,-35.156250
9804,-35.156250
9805,-35.156250
9806,-35.156250
9807,-35.156250
9808,-35.156250
9809,-35.156250
9810,-35.156250
9811,-35.156250
9812,-35.156250
9813,-35.156250
9814,-35.156250
9815,-35.156250
9816,-35.156250
9817,-35.156250
9818,-35.156250
9819,-35.156250
9820,-35.156250
9821,-35.156250
9822,-35.156250
9823,-35.156250
9824,-35.156250
9825,-35.156250
9826,-35.156250
9827,-35.156250
9828,-35.156250
9829,-35.156250
9830,-35.156250
9831,-35.156250
9832,-35.156250
9833,-35.156250
9834,-35.156250
9835,-35.156250
9836,-35.156250
9837,-31.250000
9838,-35.156250
9839,-31.250000
9840,-31.250000
9841,-31.250000
9842,-35.156250
9843,-35.156250
9844,-35.156250
9845,-31.250000
9846,-31.250000
9847,-31.250000
9848,-31.250000
9849,-31.250000
9850,-31.250000
9851,-31.250000
9852,-31.250000
9853,-31.250000
9854,-31.250000
9855,-31.250000
9856,-31.250000
9857,-31.250000
9858,-31.250000
9859,-31.250000
9860,-31.250000
9861,-31.250000
9862,-31.250000
9863,-31.250000
9864,-31.250000
9865,-31.250000
9866,-31.250000
9867,-31.250000
9868,-31.250000
9869,-31.250000
9870,-31.250000
9871,-31.250000
9872,-31.250000
9873,-31.250000
9874,-31.250000
9875,-31.250000
9876,-31.250000
9877,-31.250000
9878,-31.250000
9879,-27.343750
9880,-31.250000
9881,-27.343750
9882,-27.343750
9883,-27.343750
9884,-27.343750
9885,-27.343750
9886,-31.250000
9887,-27.343750
9888,-27.343750
9889,-27.343750
9890,-27.343750
9891,-27.343750
9892,-27.343750
9893,-27.343750
9894,-27.343750
9895,-27.343750
9896,-27.343750
9897,-27.343750
9898,-27.343750
9899,-27.343750
9900,-27.343750
9901,-27.343750
9902,-27.343750
9903,-27.343750
9904,-27.343750
9905,-27.343750
9906,-27.343750
9907,-27.343750
9908,-27.343750
9909,-27.343750
9910,-27.343750
9911,-23.437500
9912,-27.343750
9913,-23.437500
9914,-27.343750
9915,-23.437500
9916,-23.437500
9917,-23.437500
9918,-23.437500
9919,-23.437500
9920,-23.437500
9921,-23.437500
9922,-23.437500
9923,-23.437500
9924,-23.437500
9925,-23.437500
9926,-23.437500
9927,-23.437500
9928,-23.437500
9929,-23.437500
9930,-23.437500
9931,-23.437500
9932,-23.437500
9933,-23.437500
9934,-23.437500
9935,-23.437500
9936,-23.437500
9937,-19.531250
9938,-19.531250
9939,-23.437500
9940,-19.531250
9941,-19.531250
9942,-23.437500
9943,-19.531250
9944,-19.531250
9945,-19.531250
9946,-19.531250
9947,-19.531250
9948,-19.531250
9949,-19.531250
9950,-19.531250
9951,-19.531250
9952,-19.531250
9953,-19.531250
9954,-19.531250
9955,-19.531250
9956,-19.531250
9957,-19.531250
9958,-19.531250
9959,-19.531250
9960,-19.531250
9961,-19.531250
9962,-19.531250
9963,-19.531250
9964,-19.531250
9965,-19.531250
9966,-15.625000
9967,-15.625000
9968,-19.531250
9969,-15.625000
9970,-15.625000
9971,-19.531250
9972,-15.625000
9973,-15.625000
9974,-15.625000
9975,-15.625000
9976,-15.625000
9977,-15.625000
9978,-15.625000
9979,-15.625000
9980,-15.625000
9981,-15.625000
9982,-15.625000
9983,-15.625000
9984,-15.625000
9985,-15.625000
9986,-15.625000
9987,-15.625000
9988,-15.625000
9989,-11.718750
9990,-15.625000
9991,-15.625000
9992,-15.625000
9993,-15.625000
9994,-11.718750
9995,-11.718750
9996,-11.718750
9997,-11.718750
9998,-11.718750
9999,-11.718750
10000,-11.718750
