Channel              :,CH1
Frequency            :,1.200kHz
Period               :,0.833ms
PK-PK                :,492.2mV
Probe attenuation    :,1X
Voltage per ADC value:,0.244141mV
Time interval        :,2.00000us

index,CH1_Voltage(mV)
1,-58.593750
2,-58.593750
3,-54.687500
4,-50.781250
5,-46.875000
6,-42.968750
7,-39.062500
8,-35.156250
9,-31.250000
10,-27.343750
11,-23.437500
12,-19.531250
13,-15.625000
14,-11.718750
15,-7.812500
16,-3.906250
17,0.000000
18,3.906250
19,7.812500
20,7.812500
21,11.718750
22,15.625000
23,19.531250
24,23.437500
25,27.343750
26,31.250000
27,31.250000
28,35.156250
29,39.062500
30,42.968750
31,46.875000
32,50.781250
33,50.781250
34,54.687500
35,58.593750
36,62.500000
37,66.406250
38,66.406250
39,70.312500
40,70.312500
41,74.218750
42,78.125000
43,82.031250
44,82.031250
45,85.937500
46,89.843750
47,89.843750
48,93.750000
49,93.750000
50,97.656250
51,101.562500
52,101.562500
53,105.468750
54,105.468750
55,109.375000
56,109.375000
57,113.281250
58,113.281250
59,117.187500
60,117.187500
61,121.093750
62,121.093750
63,125.000000
64,125.000000
65,128.906250
66,128.906250
67,132.812500
68,132.812500
69,132.812500
70,136.718750
71,136.718750
72,136.718750
73,140.625000
74,140.625000
75,140.625000
76,144.531250
77,144.531250
78,144.531250
79,148.437500
80,148.437500
81,148.437500
82,148.437500
83,152.343750
84,152.343750
85,152.343750
86,152.343750
87,156.250000
88,156.250000
89,156.250000
90,156.250000
91,156.250000
92,156.250000
93,156.250000
94,160.156250
95,160.156250
96,160.156250
97,160.156250
98,160.156250
99,160.156250
100,160.156250
101,160.156250
102,164.062500
103,160.156250
104,164.062500
105,164.062500
106,160.156250
107,164.062500
108,164.062500
109,164.062500
110,164.062500
111,164.062500
112,164.062500
113,160.156250
114,164.062500
115,164.062500
116,160.156250
117,164.062500
118,160.156250
119,160.156250
120,160.156250
121,160.156250
122,160.156250
123,160.156250
124,160.156250
125,156.250000
126,156.250000
127,156.250000
128,156.250000
129,156.250000
130,156.250000
131,152.343750
132,152.343750
133,152.343750
134,152.343750
135,152.343750
136,148.437500
137,148.437500
138,148.437500
139,144.531250
140,144.531250
141,144.531250
142,144.531250
143,140.625000
144,140.625000
145,140.625000
146,136.718750
147,136.718750
148,136.718750
149,132.812500
150,132.812500
151,128.906250
152,128.906250
153,128.906250
154,125.000000
155,125.000000
156,121.093750
157,121.093750
158,117.187500
159,117.187500
160,113.281250
161,113.281250
162,109.375000
163,109.375000
164,105.468750
165,105.468750
166,101.562500
167,97.656250
168,97.656250
169,93.750000
170,93.750000
171,89.843750
172,89.843750
173,85.937500
174,82.031250
175,78.125000
176,78.125000
177,74.218750
178,70.312500
179,70.312500
180,66.406250
181,62.500000
182,58.593750
183,58.593750
184,54.687500
185,50.781250
186,50.781250
187,46.875000
188,42.968750
189,39.062500
190,35.156250
191,31.250000
192,27.343750
193,27.343750
194,23.437500
195,19.531250
196,15.625000
197,11.718750
198,7.812500
199,3.906250
200,0.000000
201,0.000000
202,-3.906250
203,-7.812500
204,-11.718750
205,-15.625000
206,-19.531250
207,-23.437500
208,-27.343750
209,-31.250000
210,-35.156250
211,-39.062500
212,-42.968750
213,-46.875000
214,-50.781250
215,-54.687500
216,-58.593750
217,-62.500000
218,-66.406250
219,-70.312500
220,-74.218750
221,-78.125000
222,-82.031250
223,-85.937500
224,-89.843750
225,-93.750000
226,-97.656250
227,-101.562500
228,-105.468750
229,-109.375000
230,-113.281250
231,-117.187500
232,-121.093750
233,-125.000000
234,-128.906250
235,-132.812500
236,-136.718750
237,-140.625000
238,-144.531250
239,-148.437500
240,-152.343750
241,-156.250000
242,-160.156250
243,-164.062500
244,-167.968750
245,-171.875000
246,-175.781250
247,-179.687500
248,-179.687500
249,-187.500000
250,-187.500000
251,-191.406250
252,-195.312500
253,-199.218750
254,-203.125000
255,-207.031250
256,-210.937500
257,-210.937500
258,-214.843750
259,-218.750000
260,-222.656250
261,-226.562500
262,-226.562500
263,-230.468750
264,-234.375000
265,-238.281250
266,-242.187500
267,-242.187500
268,-246.093750
269,-250.000000
270,-253.906250
271,-253.906250
272,-257.812500
273,-261.718750
274,-261.718750
275,-265.625000
276,-269.531250
277,-269.531250
278,-273.437500
279,-273.437500
280,-277.343750
281,-281.250000
282,-281.250000
283,-285.156250
284,-285.156250
285,-289.062500
286,-289.062500
287,-292.968750
288,-292.968750
289,-296.875000
290,-296.875000
291,-300.781250
292,-300.781250
293,-304.687500
294,-304.687500
295,-304.687500
296,-308.593750
297,-308.593750
298,-308.593750
299,-312.500000
300,-312.500000
301,-312.500000
302,-316.406250
303,-316.406250
304,-316.406250
305,-316.406250
306,-316.406250
307,-316.406250
308,-320.312500
309,-320.312500
310,-320.312500
311,-320.312500
312,-320.312500
313,-320.312500
314,-320.312500
315,-320.312500
316,-320.312500
317,-320.312500
318,-320.312500
319,-320.312500
320,-320.312500
321,-320.312500
322,-320.312500
323,-320.312500
324,-320.312500
325,-320.312500
326,-320.312500
327,-320.312500
328,-316.406250
329,-316.406250
330,-316.406250
331,-316.406250
332,-316.406250
333,-312.500000
334,-312.500000
335,-312.500000
336,-312.500000
337,-308.593750
338,-308.593750
339,-308.593750
340,-304.687500
341,-304.687500
342,-300.781250
343,-300.781250
344,-300.781250
345,-296.875000
346,-296.875000
347,-292.968750
348,-292.968750
349,-292.968750
350,-289.062500
351,-285.156250
352,-285.156250
353,-281.250000
354,-281.250000
355,-277.343750
356,-277.343750
357,-273.437500
358,-269.531250
359,-269.531250
360,-265.625000
361,-261.718750
362,-261.718750
363,-257.812500
364,-257.812500
365,-253.906250
366,-250.000000
367,-246.093750
368,-246.093750
369,-242.187500
370,-238.281250
371,-234.375000
372,-230.468750
373,-230.468750
374,-226.562500
375,-222.656250
376,-218.750000
377,-214.843750
378,-210.937500
379,-210.937500
380,-207.031250
381,-203.125000
382,-199.218750
383,-195.312500
384,-191.406250
385,-187.500000
386,-183.593750
387,-179.687500
388,-175.781250
389,-171.875000
390,-167.968750
391,-164.062500
392,-160.156250
393,-156.250000
394,-156.250000
395,-152.343750
396,-144.531250
397,-144.531250
398,-140.625000
399,-136.718750
400,-132.812500
401,-125.000000
402,-125.000000
403,-117.187500
404,-117.187500
405,-113.281250
406,-105.468750
407,-105.468750
408,-101.562500
409,-97.656250
410,-89.843750
411,-85.937500
412,-82.031250
413,-78.125000
414,-74.218750
415,-70.312500
416,-66.406250
417,-62.500000
418,-62.500000
419,-54.687500
420,-50.781250
421,-46.875000
422,-42.968750
423,-39.062500
424,-39.062500
425,-31.250000
426,-27.343750
427,-27.343750
428,-19.531250
429,-19.531250
430,-15.625000
431,-11.718750
432,-7.812500
433,-3.906250
434,0.000000
435,3.906250
436,7.812500
437,11.718750
438,15.625000
439,15.625000
440,19.531250
441,23.437500
442,27.343750
443,31.250000
444,35.156250
445,39.062500
446,42.968750
447,42.968750
448,46.875000
449,50.781250
450,54.687500
451,54.687500
452,58.593750
453,62.500000
454,66.406250
455,66.406250
456,70.312500
457,74.218750
458,74.218750
459,78.125000
460,82.031250
461,85.937500
462,85.937500
463,89.843750
464,89.843750
465,93.750000
466,97.656250
467,97.656250
468,101.562500
469,101.562500
470,105.468750
471,109.375000
472,109.375000
473,113.281250
474,113.281250
475,117.187500
476,117.187500
477,121.093750
478,121.093750
479,125.000000
480,125.000000
481,125.000000
482,128.906250
483,128.906250
484,132.812500
485,132.812500
486,132.812500
487,136.718750
488,136.718750
489,136.718750
490,140.625000
491,140.625000
492,144.531250
493,144.531250
494,144.531250
495,148.437500
496,148.437500
497,148.437500
498,148.437500
499,148.437500
500,152.343750
501,152.343750
502,152.343750
503,152.343750
504,156.250000
505,156.250000
506,156.250000
507,156.250000
508,156.250000
509,156.250000
510,160.156250
511,160.156250
512,160.156250
513,160.156250
514,160.156250
515,160.156250
516,160.156250
517,160.156250
518,160.156250
519,160.156250
520,164.062500
521,164.062500
522,164.062500
523,164.062500
524,164.062500
525,164.062500
526,164.062500
527,164.062500
528,160.156250
529,164.062500
530,160.156250
531,164.062500
532,164.062500
533,160.156250
534,160.156250
535,160.156250
536,160.156250
537,160.156250
538,160.156250
539,160.156250
540,160.156250
541,156.250000
542,156.250000
543,156.250000
544,156.250000
545,156.250000
546,156.250000
547,152.343750
548,152.343750
549,152.343750
550,152.343750
551,152.343750
552,152.343750
553,148.437500
554,148.437500
555,148.437500
556,148.437500
557,144.531250
558,144.531250
559,144.531250
560,140.625000
561,140.625000
562,140.625000
563,136.718750
564,136.718750
565,136.718750
566,132.812500
567,132.812500
568,128.906250
569,128.906250
570,128.906250
571,125.000000
572,125.000000
573,121.093750
574,121.093750
575,117.187500
576,117.187500
577,113.281250
578,113.281250
579,109.375000
580,109.375000
581,105.468750
582,105.468750
583,101.562500
584,101.562500
585,97.656250
586,93.750000
587,93.750000
588,89.843750
589,85.937500
590,85.937500
591,82.031250
592,78.125000
593,78.125000
594,74.218750
595,70.312500
596,70.312500
597,66.406250
598,62.500000
599,58.593750
600,58.593750
601,54.687500
602,50.781250
603,46.875000
604,46.875000
605,42.968750
606,39.062500
607,35.156250
608,31.250000
609,27.343750
610,23.437500
611,23.437500
612,19.531250
613,15.625000
614,11.718750
615,7.812500
616,3.906250
617,0.000000
618,-3.906250
619,-7.812500
620,-7.812500
621,-11.718750
622,-15.625000
623,-19.531250
624,-23.437500
625,-27.343750
626,-31.250000
627,-35.156250
628,-39.062500
629,-42.968750
630,-46.875000
631,-50.781250
632,-54.687500
633,-58.593750
634,-62.500000
635,-66.406250
636,-70.312500
637,-74.218750
638,-78.125000
639,-82.031250
640,-85.937500
641,-89.843750
642,-93.750000
643,-97.656250
644,-101.562500
645,-105.468750
646,-109.375000
647,-113.281250
648,-117.187500
649,-121.093750
650,-125.000000
651,-128.906250
652,-132.812500
653,-136.718750
654,-140.625000
655,-144.531250
656,-148.437500
657,-152.343750
658,-156.250000
659,-160.156250
660,-164.062500
661,-167.968750
662,-171.875000
663,-175.781250
664,-179.687500
665,-183.593750
666,-187.500000
667,-187.500000
668,-191.406250
669,-195.312500
670,-199.218750
671,-203.125000
672,-207.031250
673,-210.937500
674,-214.843750
675,-214.843750
676,-218.750000
677,-222.656250
678,-226.562500
679,-230.468750
680,-234.375000
681,-234.375000
682,-238.281250
683,-242.187500
684,-246.093750
685,-246.093750
686,-250.000000
687,-253.906250
688,-257.812500
689,-257.812500
690,-261.718750
691,-265.625000
692,-265.625000
693,-269.531250
694,-273.437500
695,-273.437500
696,-277.343750
697,-277.343750
698,-281.250000
699,-281.250000
700,-285.156250
701,-289.062500
702,-289.062500
703,-292.968750
704,-292.968750
705,-292.968750
706,-296.875000
707,-296.875000
708,-300.781250
709,-300.781250
710,-304.687500
711,-304.687500
712,-304.687500
713,-308.593750
714,-308.593750
715,-308.593750
716,-312.500000
717,-312.500000
718,-312.500000
719,-316.406250
720,-316.406250
721,-316.406250
722,-316.406250
723,-316.406250
724,-320.312500
725,-320.312500
726,-320.312500
727,-320.312500
728,-320.312500
729,-320.312500
730,-320.312500
731,-324.218750
732,-324.218750
733,-324.218750
734,-324.218750
735,-320.312500
736,-324.218750
737,-320.312500
738,-320.312500
739,-320.312500
740,-320.312500
741,-320.312500
742,-320.312500
743,-320.312500
744,-320.312500
745,-316.406250
746,-316.406250
747,-316.406250
748,-316.406250
749,-316.406250
750,-312.500000
751,-312.500000
752,-312.500000
753,-312.500000
754,-308.593750
755,-308.593750
756,-308.593750
757,-304.687500
758,-304.687500
759,-300.781250
760,-300.781250
761,-300.781250
762,-296.875000
763,-296.875000
764,-296.875000
765,-292.968750
766,-289.062500
767,-289.062500
768,-289.062500
769,-285.156250
770,-281.250000
771,-281.250000
772,-277.343750
773,-277.343750
774,-273.437500
775,-273.437500
776,-269.531250
777,-265.625000
778,-261.718750
779,-261.718750
780,-257.812500
781,-253.906250
782,-253.906250
783,-250.000000
784,-246.093750
785,-242.187500
786,-242.187500
787,-238.281250
788,-234.375000
789,-230.468750
790,-230.468750
791,-226.562500
792,-222.656250
793,-218.750000
794,-214.843750
795,-210.937500
796,-210.937500
797,-203.125000
798,-203.125000
799,-199.218750
800,-195.312500
801,-191.406250
802,-187.500000
803,-183.593750
804,-179.687500
805,-175.781250
806,-171.875000
807,-167.968750
808,-167.968750
809,-164.062500
810,-156.250000
811,-156.250000
812,-152.343750
813,-148.437500
814,-140.625000
815,-140.625000
816,-136.718750
817,-132.812500
818,-125.000000
819,-125.000000
820,-117.187500
821,-113.281250
822,-113.281250
823,-105.468750
824,-101.562500
825,-97.656250
826,-93.750000
827,-89.843750
828,-85.937500
829,-82.031250
830,-78.125000
831,-74.218750
832,-70.312500
833,-66.406250
834,-62.500000
835,-58.593750
836,-54.687500
837,-50.781250
838,-46.875000
839,-42.968750
840,-39.062500
841,-35.156250
842,-31.250000
843,-31.250000
844,-23.437500
845,-23.437500
846,-15.625000
847,-15.625000
848,-11.718750
849,-7.812500
850,-3.906250
851,0.000000
852,3.906250
853,7.812500
854,11.718750
855,15.625000
856,19.531250
857,19.531250
858,23.437500
859,27.343750
860,31.250000
861,35.156250
862,39.062500
863,42.968750
864,42.968750
865,46.875000
866,50.781250
867,54.687500
868,58.593750
869,58.593750
870,62.500000
871,66.406250
872,70.312500
873,70.312500
874,74.218750
875,78.125000
876,78.125000
877,82.031250
878,85.937500
879,85.937500
880,89.843750
881,89.843750
882,93.750000
883,97.656250
884,97.656250
885,101.562500
886,101.562500
887,105.468750
888,109.375000
889,109.375000
890,113.281250
891,113.281250
892,117.187500
893,117.187500
894,121.093750
895,121.093750
896,125.000000
897,125.000000
898,125.000000
899,128.906250
900,128.906250
901,132.812500
902,132.812500
903,136.718750
904,136.718750
905,136.718750
906,140.625000
907,140.625000
908,140.625000
909,140.625000
910,144.531250
911,144.531250
912,148.437500
913,148.437500
914,148.437500
915,148.437500
916,152.343750
917,152.343750
918,152.343750
919,152.343750
920,152.343750
921,156.250000
922,156.250000
923,156.250000
924,156.250000
925,156.250000
926,160.156250
927,160.156250
928,160.156250
929,160.156250
930,160.156250
931,160.156250
932,160.156250
933,160.156250
934,160.156250
935,160.156250
936,160.156250
937,160.156250
938,164.062500
939,164.062500
940,164.062500
941,164.062500
942,164.062500
943,164.062500
944,164.062500
945,160.156250
946,164.062500
947,164.062500
948,164.062500
949,164.062500
950,160.156250
951,164.062500
952,160.156250
953,160.156250
954,160.156250
955,160.156250
956,160.156250
957,160.156250
958,160.156250
959,160.156250
960,156.250000
961,156.250000
962,156.250000
963,156.250000
964,156.250000
965,156.250000
966,152.343750
967,152.343750
968,152.343750
969,152.343750
970,148.437500
971,148.437500
972,144.531250
973,148.437500
974,144.531250
975,144.531250
976,144.531250
977,140.625000
978,140.625000
979,140.625000
980,136.718750
981,136.718750
982,136.718750
983,132.812500
984,132.812500
985,128.906250
986,128.906250
987,128.906250
988,125.000000
989,125.000000
990,121.093750
991,121.093750
992,117.187500
993,117.187500
994,113.281250
995,113.281250
996,109.375000
997,109.375000
998,105.468750
999,105.468750
1000,101.562500
1001,97.656250
1002,97.656250
1003,93.750000
1004,93.750000
1005,89.843750
1006,85.937500
1007,82.031250
1008,82.031250
1009,78.125000
1010,78.125000
1011,74.218750
1012,70.312500
1013,70.312500
1014,66.406250
1015,62.500000
1016,58.593750
1017,58.593750
1018,54.687500
1019,50.781250
1020,46.875000
1021,42.968750
1022,42.968750
1023,39.062500
1024,35.156250
1025,31.250000
1026,27.343750
1027,23.437500
1028,23.437500
1029,19.531250
1030,15.625000
1031,11.718750
1032,7.812500
1033,3.906250
1034,0.000000
1035,-3.906250
1036,-7.812500
1037,-11.718750
1038,-11.718750
1039,-15.625000
1040,-19.531250
1041,-23.437500
1042,-27.343750
1043,-31.250000
1044,-35.156250
1045,-39.062500
1046,-42.968750
1047,-46.875000
1048,-50.781250
1049,-54.687500
1050,-58.593750
1051,-62.500000
1052,-66.406250
1053,-70.312500
1054,-74.218750
1055,-78.125000
1056,-82.031250
1057,-85.937500
1058,-89.843750
1059,-93.750000
1060,-97.656250
1061,-101.562500
1062,-105.468750
1063,-109.375000
1064,-113.281250
1065,-117.187500
1066,-121.093750
1067,-125.000000
1068,-128.906250
1069,-132.812500
1070,-136.718750
1071,-140.625000
1072,-144.531250
1073,-148.437500
1074,-152.343750
1075,-156.250000
1076,-160.156250
1077,-164.062500
1078,-167.968750
1079,-171.875000
1080,-175.781250
1081,-179.687500
1082,-183.593750
1083,-187.500000
1084,-187.500000
1085,-191.406250
1086,-195.312500
1087,-199.218750
1088,-203.125000
1089,-207.031250
1090,-210.937500
1091,-214.843750
1092,-218.750000
1093,-218.750000
1094,-222.656250
1095,-226.562500
1096,-230.468750
1097,-234.375000
1098,-238.281250
1099,-238.281250
1100,-242.187500
1101,-246.093750
1102,-250.000000
1103,-250.000000
1104,-253.906250
1105,-257.812500
1106,-257.812500
1107,-261.718750
1108,-265.625000
1109,-265.625000
1110,-269.531250
1111,-273.437500
1112,-273.437500
1113,-277.343750
1114,-277.343750
1115,-281.250000
1116,-285.156250
1117,-285.156250
1118,-289.062500
1119,-289.062500
1120,-292.968750
1121,-292.968750
1122,-296.875000
1123,-296.875000
1124,-296.875000
1125,-300.781250
1126,-300.781250
1127,-304.687500
1128,-304.687500
1129,-308.593750
1130,-308.593750
1131,-308.593750
1132,-308.593750
1133,-312.500000
1134,-312.500000
1135,-312.500000
1136,-316.406250
1137,-316.406250
1138,-316.406250
1139,-316.406250
1140,-316.406250
1141,-320.312500
1142,-320.312500
1143,-320.312500
1144,-320.312500
1145,-320.312500
1146,-320.312500
1147,-320.312500
1148,-320.312500
1149,-320.312500
1150,-324.218750
1151,-320.312500
1152,-320.312500
1153,-320.312500
1154,-320.312500
1155,-320.312500
1156,-320.312500
1157,-320.312500
1158,-320.312500
1159,-320.312500
1160,-320.312500
1161,-320.312500
1162,-316.406250
1163,-316.406250
1164,-316.406250
1165,-316.406250
1166,-316.406250
1167,-316.406250
1168,-312.500000
1169,-312.500000
1170,-312.500000
1171,-308.593750
1172,-308.593750
1173,-308.593750
1174,-304.687500
1175,-304.687500
1176,-304.687500
1177,-300.781250
1178,-300.781250
1179,-296.875000
1180,-296.875000
1181,-292.968750
1182,-292.968750
1183,-289.062500
1184,-289.062500
1185,-289.062500
1186,-285.156250
1187,-281.250000
1188,-281.250000
1189,-277.343750
1190,-273.437500
1191,-273.437500
1192,-273.437500
1193,-269.531250
1194,-265.625000
1195,-265.625000
1196,-261.718750
1197,-257.812500
1198,-257.812500
1199,-253.906250
1200,-250.000000
1201,-246.093750
1202,-242.187500
1203,-242.187500
1204,-238.281250
1205,-234.375000
1206,-234.375000
1207,-230.468750
1208,-226.562500
1209,-222.656250
1210,-218.750000
1211,-214.843750
1212,-210.937500
1213,-207.031250
1214,-207.031250
1215,-203.125000
1216,-199.218750
1217,-195.312500
1218,-191.406250
1219,-187.500000
1220,-183.593750
1221,-179.687500
1222,-175.781250
1223,-171.875000
1224,-167.968750
1225,-164.062500
1226,-160.156250
1227,-156.250000
1228,-152.343750
1229,-148.437500
1230,-144.531250
1231,-140.625000
1232,-136.718750
1233,-132.812500
1234,-128.906250
1235,-125.000000
1236,-121.093750
1237,-117.187500
1238,-113.281250
1239,-109.375000
1240,-105.468750
1241,-101.562500
1242,-97.656250
1243,-93.750000
1244,-89.843750
1245,-85.937500
1246,-82.031250
1247,-78.125000
1248,-74.218750
1249,-70.312500
1250,-66.406250
1251,-62.500000
1252,-58.593750
1253,-54.687500
1254,-50.781250
1255,-46.875000
1256,-42.968750
1257,-39.062500
1258,-35.156250
1259,-31.250000
1260,-31.250000
1261,-23.437500
1262,-19.531250
1263,-19.531250
1264,-15.625000
1265,-11.718750
1266,-7.812500
1267,-3.906250
1268,0.000000
1269,3.906250
1270,11.718750
1271,11.718750
1272,15.625000
1273,19.531250
1274,19.531250
1275,23.437500
1276,27.343750
1277,31.250000
1278,35.156250
1279,39.062500
1280,39.062500
1281,42.968750
1282,46.875000
1283,50.781250
1284,54.687500
1285,54.687500
1286,58.593750
1287,62.500000
1288,66.406250
1289,70.312500
1290,70.312500
1291,74.218750
1292,78.125000
1293,78.125000
1294,82.031250
1295,85.937500
1296,85.937500
1297,89.843750
1298,93.750000
1299,93.750000
1300,97.656250
1301,97.656250
1302,101.562500
1303,101.562500
1304,105.468750
1305,109.375000
1306,109.375000
1307,113.281250
1308,113.281250
1309,117.187500
1310,117.187500
1311,121.093750
1312,121.093750
1313,125.000000
1314,125.000000
1315,125.000000
1316,128.906250
1317,128.906250
1318,132.812500
1319,132.812500
1320,136.718750
1321,136.718750
1322,136.718750
1323,140.625000
1324,140.625000
1325,140.625000
1326,140.625000
1327,144.531250
1328,144.531250
1329,144.531250
1330,148.437500
1331,148.437500
1332,148.437500
1333,148.437500
1334,152.343750
1335,152.343750
1336,152.343750
1337,156.250000
1338,156.250000
1339,156.250000
1340,156.250000
1341,156.250000
1342,156.250000
1343,156.250000
1344,160.156250
1345,160.156250
1346,160.156250
1347,160.156250
1348,160.156250
1349,160.156250
1350,160.156250
1351,160.156250
1352,164.062500
1353,160.156250
1354,164.062500
1355,164.062500
1356,164.062500
1357,164.062500
1358,164.062500
1359,164.062500
1360,164.062500
1361,164.062500
1362,164.062500
1363,160.156250
1364,160.156250
1365,160.156250
1366,164.062500
1367,160.156250
1368,160.156250
1369,160.156250
1370,160.156250
1371,160.156250
1372,160.156250
1373,160.156250
1374,160.156250
1375,160.156250
1376,156.250000
1377,156.250000
1378,156.250000
1379,156.250000
1380,156.250000
1381,156.250000
1382,152.343750
1383,152.343750
1384,152.343750
1385,148.437500
1386,148.437500
1387,148.437500
1388,148.437500
1389,148.437500
1390,144.531250
1391,144.531250
1392,144.531250
1393,144.531250
1394,140.625000
1395,140.625000
1396,136.718750
1397,136.718750
1398,136.718750
1399,136.718750
1400,132.812500
1401,132.812500
1402,128.906250
1403,128.906250
1404,125.000000
1405,125.000000
1406,121.093750
1407,121.093750
1408,121.093750
1409,117.187500
1410,117.187500
1411,113.281250
1412,113.281250
1413,109.375000
1414,105.468750
1415,105.468750
1416,105.468750
1417,101.562500
1418,97.656250
1419,97.656250
1420,93.750000
1421,93.750000
1422,89.843750
1423,85.937500
1424,85.937500
1425,82.031250
1426,78.125000
1427,78.125000
1428,74.218750
1429,70.312500
1430,70.312500
1431,66.406250
1432,62.500000
1433,58.593750
1434,58.593750
1435,54.687500
1436,50.781250
1437,46.875000
1438,42.968750
1439,42.968750
1440,39.062500
1441,35.156250
1442,31.250000
1443,27.343750
1444,23.437500
1445,19.531250
1446,19.531250
1447,15.625000
1448,11.718750
1449,7.812500
1450,3.906250
1451,0.000000
1452,-3.906250
1453,-7.812500
1454,-11.718750
1455,-15.625000
1456,-15.625000
1457,-23.437500
1458,-23.437500
1459,-27.343750
1460,-31.250000
1461,-35.156250
1462,-39.062500
1463,-42.968750
1464,-46.875000
1465,-50.781250
1466,-54.687500
1467,-58.593750
1468,-62.500000
1469,-66.406250
1470,-70.312500
1471,-74.218750
1472,-78.125000
1473,-82.031250
1474,-85.937500
1475,-89.843750
1476,-93.750000
1477,-101.562500
1478,-101.562500
1479,-105.468750
1480,-109.375000
1481,-113.281250
1482,-117.187500
1483,-125.000000
1484,-125.000000
1485,-128.906250
1486,-132.812500
1487,-136.718750
1488,-140.625000
1489,-144.531250
1490,-148.437500
1491,-152.343750
1492,-156.250000
1493,-160.156250
1494,-164.062500
1495,-167.968750
1496,-171.875000
1497,-175.781250
1498,-179.687500
1499,-183.593750
1500,-187.500000
1501,-191.406250
1502,-195.312500
1503,-195.312500
1504,-199.218750
1505,-203.125000
1506,-207.031250
1507,-210.937500
1508,-214.843750
1509,-218.750000
1510,-222.656250
1511,-222.656250
1512,-226.562500
1513,-230.468750
1514,-234.375000
1515,-238.281250
1516,-238.281250
1517,-242.187500
1518,-246.093750
1519,-250.000000
1520,-250.000000
1521,-253.906250
1522,-257.812500
1523,-261.718750
1524,-261.718750
1525,-265.625000
1526,-265.625000
1527,-269.531250
1528,-273.437500
1529,-273.437500
1530,-277.343750
1531,-277.343750
1532,-281.250000
1533,-285.156250
1534,-285.156250
1535,-289.062500
1536,-289.062500
1537,-292.968750
1538,-292.968750
1539,-296.875000
1540,-296.875000
1541,-296.875000
1542,-300.781250
1543,-300.781250
1544,-304.687500
1545,-304.687500
1546,-304.687500
1547,-308.593750
1548,-308.593750
1549,-308.593750
1550,-312.500000
1551,-312.500000
1552,-312.500000
1553,-312.500000
1554,-316.406250
1555,-316.406250
1556,-316.406250
1557,-316.406250
1558,-316.406250
1559,-320.312500
1560,-320.312500
1561,-320.312500
1562,-320.312500
1563,-320.312500
1564,-320.312500
1565,-320.312500
1566,-320.312500
1567,-320.312500
1568,-320.312500
1569,-320.312500
1570,-320.312500
1571,-320.312500
1572,-320.312500
1573,-320.312500
1574,-320.312500
1575,-320.312500
1576,-320.312500
1577,-320.312500
1578,-320.312500
1579,-316.406250
1580,-316.406250
1581,-316.406250
1582,-316.406250
1583,-316.406250
1584,-312.500000
1585,-312.500000
1586,-312.500000
1587,-312.500000
1588,-308.593750
1589,-308.593750
1590,-308.593750
1591,-304.687500
1592,-304.687500
1593,-300.781250
1594,-300.781250
1595,-300.781250
1596,-296.875000
1597,-296.875000
1598,-292.968750
1599,-292.968750
1600,-289.062500
1601,-289.062500
1602,-285.156250
1603,-285.156250
1604,-281.250000
1605,-281.250000
1606,-277.343750
1607,-273.437500
1608,-273.437500
1609,-269.531250
1610,-265.625000
1611,-265.625000
1612,-261.718750
1613,-261.718750
1614,-257.812500
1615,-253.906250
1616,-250.000000
1617,-250.000000
1618,-246.093750
1619,-242.187500
1620,-238.281250
1621,-238.281250
1622,-234.375000
1623,-230.468750
1624,-226.562500
1625,-222.656250
1626,-218.750000
1627,-218.750000
1628,-214.843750
1629,-210.937500
1630,-207.031250
1631,-203.125000
1632,-199.218750
1633,-195.312500
1634,-195.312500
1635,-191.406250
1636,-187.500000
1637,-183.593750
1638,-179.687500
1639,-175.781250
1640,-171.875000
1641,-167.968750
1642,-164.062500
1643,-160.156250
1644,-156.250000
1645,-152.343750
1646,-148.437500
1647,-144.531250
1648,-140.625000
1649,-136.718750
1650,-132.812500
1651,-128.906250
1652,-125.000000
1653,-121.093750
1654,-117.187500
1655,-113.281250
1656,-109.375000
1657,-105.468750
1658,-101.562500
1659,-97.656250
1660,-93.750000
1661,-89.843750
1662,-85.937500
1663,-82.031250
1664,-78.125000
1665,-74.218750
1666,-70.312500
1667,-66.406250
1668,-62.500000
1669,-58.593750
1670,-54.687500
1671,-50.781250
1672,-46.875000
1673,-42.968750
1674,-39.062500
1675,-35.156250
1676,-31.250000
1677,-27.343750
1678,-23.437500
1679,-19.531250
1680,-15.625000
1681,-11.718750
1682,-7.812500
1683,-3.906250
1684,0.000000
1685,0.000000
1686,3.906250
1687,7.812500
1688,11.718750
1689,15.625000
1690,19.531250
1691,23.437500
1692,23.437500
1693,31.250000
1694,31.250000
1695,35.156250
1696,39.062500
1697,42.968750
1698,46.875000
1699,46.875000
1700,50.781250
1701,54.687500
1702,58.593750
1703,58.593750
1704,62.500000
1705,66.406250
1706,66.406250
1707,70.312500
1708,74.218750
1709,78.125000
1710,78.125000
1711,82.031250
1712,82.031250
1713,85.937500
1714,89.843750
1715,93.750000
1716,93.750000
1717,97.656250
1718,97.656250
1719,101.562500
1720,101.562500
1721,105.468750
1722,105.468750
1723,109.375000
1724,113.281250
1725,113.281250
1726,117.187500
1727,117.187500
1728,121.093750
1729,121.093750
1730,125.000000
1731,125.000000
1732,125.000000
1733,128.906250
1734,128.906250
1735,132.812500
1736,132.812500
1737,132.812500
1738,136.718750
1739,136.718750
1740,140.625000
1741,140.625000
1742,140.625000
1743,144.531250
1744,144.531250
1745,144.531250
1746,144.531250
1747,148.437500
1748,148.437500
1749,148.437500
1750,148.437500
1751,152.343750
1752,152.343750
1753,152.343750
1754,152.343750
1755,156.250000
1756,156.250000
1757,156.250000
1758,156.250000
1759,156.250000
1760,160.156250
1761,156.250000
1762,160.156250
1763,160.156250
1764,160.156250
1765,160.156250
1766,160.156250
1767,160.156250
1768,160.156250
1769,160.156250
1770,164.062500
1771,160.156250
1772,160.156250
1773,164.062500
1774,164.062500
1775,164.062500
1776,164.062500
1777,164.062500
1778,164.062500
1779,160.156250
1780,164.062500
1781,164.062500
1782,164.062500
1783,160.156250
1784,160.156250
1785,160.156250
1786,160.156250
1787,160.156250
1788,160.156250
1789,160.156250
1790,160.156250
1791,160.156250
1792,160.156250
1793,156.250000
1794,156.250000
1795,156.250000
1796,156.250000
1797,156.250000
1798,156.250000
1799,152.343750
1800,152.343750
1801,152.343750
1802,152.343750
1803,148.437500
1804,148.437500
1805,148.437500
1806,144.531250
1807,144.531250
1808,144.531250
1809,144.531250
1810,144.531250
1811,140.625000
1812,140.625000
1813,136.718750
1814,136.718750
1815,136.718750
1816,132.812500
1817,132.812500
1818,128.906250
1819,128.906250
1820,125.000000
1821,125.000000
1822,125.000000
1823,121.093750
1824,121.093750
1825,121.093750
1826,117.187500
1827,113.281250
1828,113.281250
1829,109.375000
1830,109.375000
1831,105.468750
1832,105.468750
1833,101.562500
1834,101.562500
1835,97.656250
1836,93.750000
1837,93.750000
1838,89.843750
1839,89.843750
1840,85.937500
1841,82.031250
1842,82.031250
1843,78.125000
1844,74.218750
1845,74.218750
1846,70.312500
1847,66.406250
1848,62.500000
1849,58.593750
1850,58.593750
1851,54.687500
1852,54.687500
1853,50.781250
1854,46.875000
1855,42.968750
1856,39.062500
1857,35.156250
1858,35.156250
1859,31.250000
1860,27.343750
1861,23.437500
1862,19.531250
1863,15.625000
1864,11.718750
1865,11.718750
1866,7.812500
1867,3.906250
1868,0.000000
1869,-3.906250
1870,-7.812500
1871,-11.718750
1872,-15.625000
1873,-19.531250
1874,-23.437500
1875,-27.343750
1876,-31.250000
1877,-35.156250
1878,-35.156250
1879,-39.062500
1880,-46.875000
1881,-50.781250
1882,-54.687500
1883,-58.593750
1884,-58.593750
1885,-62.500000
1886,-70.312500
1887,-74.218750
1888,-74.218750
1889,-82.031250
1890,-82.031250
1891,-89.843750
1892,-93.750000
1893,-97.656250
1894,-97.656250
1895,-105.468750
1896,-109.375000
1897,-113.281250
1898,-117.187500
1899,-121.093750
1900,-125.000000
1901,-128.906250
1902,-132.812500
1903,-136.718750
1904,-140.625000
1905,-144.531250
1906,-148.437500
1907,-152.343750
1908,-156.250000
1909,-156.250000
1910,-164.062500
1911,-164.062500
1912,-167.968750
1913,-171.875000
1914,-175.781250
1915,-179.687500
1916,-183.593750
1917,-187.500000
1918,-191.406250
1919,-195.312500
1920,-199.218750
1921,-203.125000
1922,-203.125000
1923,-207.031250
1924,-210.937500
1925,-214.843750
1926,-218.750000
1927,-222.656250
1928,-222.656250
1929,-226.562500
1930,-230.468750
1931,-234.375000
1932,-238.281250
1933,-242.187500
1934,-242.187500
1935,-246.093750
1936,-250.000000
1937,-250.000000
1938,-253.906250
1939,-257.812500
1940,-257.812500
1941,-261.718750
1942,-265.625000
1943,-269.531250
1944,-269.531250
1945,-273.437500
1946,-273.437500
1947,-277.343750
1948,-281.250000
1949,-281.250000
1950,-285.156250
1951,-285.156250
1952,-289.062500
1953,-289.062500
1954,-292.968750
1955,-292.968750
1956,-296.875000
1957,-296.875000
1958,-300.781250
1959,-300.781250
1960,-300.781250
1961,-304.687500
1962,-304.687500
1963,-308.593750
1964,-308.593750
1965,-308.593750
1966,-308.593750
1967,-312.500000
1968,-312.500000
1969,-312.500000
1970,-316.406250
1971,-316.406250
1972,-316.406250
1973,-316.406250
1974,-320.312500
1975,-320.312500
1976,-320.312500
1977,-320.312500
1978,-320.312500
1979,-320.312500
1980,-320.312500
1981,-320.312500
1982,-320.312500
1983,-320.312500
1984,-320.312500
1985,-324.218750
1986,-320.312500
1987,-320.312500
1988,-320.312500
1989,-320.312500
1990,-320.312500
1991,-320.312500
1992,-320.312500
1993,-320.312500
1994,-320.312500
1995,-320.312500
1996,-320.312500
1997,-316.406250
1998,-316.406250
1999,-316.406250
2000,-316.406250
2001,-312.500000
2002,-312.500000
2003,-312.500000
2004,-308.593750
2005,-308.593750
2006,-308.593750
2007,-304.687500
2008,-304.687500
2009,-304.687500
2010,-300.781250
2011,-300.781250
2012,-296.875000
2013,-296.875000
2014,-296.875000
2015,-292.968750
2016,-292.968750
2017,-289.062500
2018,-289.062500
2019,-285.156250
2020,-285.156250
2021,-281.250000
2022,-277.343750
2023,-277.343750
2024,-273.437500
2025,-273.437500
2026,-269.531250
2027,-265.625000
2028,-265.625000
2029,-261.718750
2030,-257.812500
2031,-257.812500
2032,-253.906250
2033,-250.000000
2034,-246.093750
2035,-246.093750
2036,-242.187500
2037,-238.281250
2038,-238.281250
2039,-234.375000
2040,-230.468750
2041,-226.562500
2042,-222.656250
2043,-218.750000
2044,-218.750000
2045,-214.843750
2046,-210.937500
2047,-207.031250
2048,-203.125000
2049,-199.218750
2050,-195.312500
2051,-191.406250
2052,-191.406250
2053,-187.500000
2054,-183.593750
2055,-179.687500
2056,-175.781250
2057,-171.875000
2058,-167.968750
2059,-164.062500
2060,-160.156250
2061,-156.250000
2062,-152.343750
2063,-148.437500
2064,-144.531250
2065,-140.625000
2066,-136.718750
2067,-132.812500
2068,-128.906250
2069,-125.000000
2070,-121.093750
2071,-117.187500
2072,-113.281250
2073,-109.375000
2074,-105.468750
2075,-101.562500
2076,-97.656250
2077,-93.750000
2078,-89.843750
2079,-85.937500
2080,-82.031250
2081,-78.125000
2082,-78.125000
2083,-70.312500
2084,-66.406250
2085,-62.500000
2086,-58.593750
2087,-54.687500
2088,-50.781250
2089,-46.875000
2090,-42.968750
2091,-39.062500
2092,-39.062500
2093,-31.250000
2094,-27.343750
2095,-23.437500
2096,-19.531250
2097,-15.625000
2098,-11.718750
2099,-7.812500
2100,-3.906250
2101,0.000000
2102,0.000000
2103,3.906250
2104,7.812500
2105,11.718750
2106,15.625000
2107,19.531250
2108,23.437500
2109,23.437500
2110,31.250000
2111,31.250000
2112,35.156250
2113,39.062500
2114,42.968750
2115,42.968750
2116,46.875000
2117,50.781250
2118,54.687500
2119,58.593750
2120,58.593750
2121,62.500000
2122,66.406250
2123,70.312500
2124,70.312500
2125,74.218750
2126,78.125000
2127,78.125000
2128,82.031250
2129,85.937500
2130,89.843750
2131,89.843750
2132,93.750000
2133,93.750000
2134,97.656250
2135,97.656250
2136,101.562500
2137,105.468750
2138,105.468750
2139,109.375000
2140,109.375000
2141,113.281250
2142,113.281250
2143,117.187500
2144,117.187500
2145,121.093750
2146,121.093750
2147,125.000000
2148,125.000000
2149,125.000000
2150,128.906250
2151,128.906250
2152,132.812500
2153,132.812500
2154,136.718750
2155,136.718750
2156,136.718750
2157,140.625000
2158,140.625000
2159,140.625000
2160,144.531250
2161,144.531250
2162,144.531250
2163,148.437500
2164,148.437500
2165,148.437500
2166,148.437500
2167,152.343750
2168,152.343750
2169,152.343750
2170,152.343750
2171,152.343750
2172,156.250000
2173,156.250000
2174,156.250000
2175,156.250000
2176,156.250000
2177,156.250000
2178,160.156250
2179,160.156250
2180,160.156250
2181,160.156250
2182,160.156250
2183,160.156250
2184,160.156250
2185,160.156250
2186,164.062500
2187,160.156250
2188,164.062500
2189,164.062500
2190,164.062500
2191,164.062500
2192,164.062500
2193,164.062500
2194,164.062500
2195,164.062500
2196,164.062500
2197,164.062500
2198,164.062500
2199,164.062500
2200,164.062500
2201,160.156250
2202,160.156250
2203,160.156250
2204,160.156250
2205,160.156250
2206,160.156250
2207,160.156250
2208,160.156250
2209,156.250000
2210,156.250000
2211,156.250000
2212,156.250000
2213,156.250000
2214,156.250000
2215,152.343750
2216,152.343750
2217,152.343750
2218,152.343750
2219,152.343750
2220,148.437500
2221,148.437500
2222,148.437500
2223,144.531250
2224,144.531250
2225,144.531250
2226,144.531250
2227,140.625000
2228,140.625000
2229,136.718750
2230,140.625000
2231,136.718750
2232,132.812500
2233,132.812500
2234,132.812500
2235,128.906250
2236,128.906250
2237,125.000000
2238,125.000000
2239,125.000000
2240,121.093750
2241,121.093750
2242,117.187500
2243,117.187500
2244,113.281250
2245,117.187500
2246,109.375000
2247,109.375000
2248,105.468750
2249,105.468750
2250,101.562500
2251,97.656250
2252,97.656250
2253,93.750000
2254,93.750000
2255,89.843750
2256,85.937500
2257,85.937500
2258,82.031250
2259,82.031250
2260,78.125000
2261,74.218750
2262,70.312500
2263,70.312500
2264,66.406250
2265,62.500000
2266,62.500000
2267,58.593750
2268,54.687500
2269,50.781250
2270,46.875000
2271,46.875000
2272,42.968750
2273,39.062500
2274,35.156250
2275,31.250000
2276,31.250000
2277,27.343750
2278,23.437500
2279,19.531250
2280,15.625000
2281,11.718750
2282,7.812500
2283,3.906250
2284,0.000000
2285,-3.906250
2286,-3.906250
2287,-7.812500
2288,-11.718750
2289,-15.625000
2290,-19.531250
2291,-23.437500
2292,-27.343750
2293,-31.250000
2294,-35.156250
2295,-39.062500
2296,-42.968750
2297,-46.875000
2298,-50.781250
2299,-54.687500
2300,-58.593750
2301,-62.500000
2302,-66.406250
2303,-70.312500
2304,-74.218750
2305,-78.125000
2306,-82.031250
2307,-85.937500
2308,-89.843750
2309,-93.750000
2310,-97.656250
2311,-101.562500
2312,-105.468750
2313,-109.375000
2314,-113.281250
2315,-117.187500
2316,-121.093750
2317,-125.000000
2318,-128.906250
2319,-132.812500
2320,-136.718750
2321,-140.625000
2322,-144.531250
2323,-148.437500
2324,-152.343750
2325,-156.250000
2326,-160.156250
2327,-160.156250
2328,-167.968750
2329,-167.968750
2330,-171.875000
2331,-175.781250
2332,-179.687500
2333,-183.593750
2334,-187.500000
2335,-191.406250
2336,-195.312500
2337,-199.218750
2338,-199.218750
2339,-207.031250
2340,-207.031250
2341,-210.937500
2342,-214.843750
2343,-218.750000
2344,-222.656250
2345,-226.562500
2346,-230.468750
2347,-230.468750
2348,-234.375000
2349,-238.281250
2350,-242.187500
2351,-242.187500
2352,-246.093750
2353,-250.000000
2354,-253.906250
2355,-253.906250
2356,-257.812500
2357,-261.718750
2358,-261.718750
2359,-265.625000
2360,-269.531250
2361,-269.531250
2362,-273.437500
2363,-273.437500
2364,-277.343750
2365,-281.250000
2366,-281.250000
2367,-285.156250
2368,-285.156250
2369,-289.062500
2370,-289.062500
2371,-292.968750
2372,-292.968750
2373,-296.875000
2374,-296.875000
2375,-300.781250
2376,-300.781250
2377,-300.781250
2378,-304.687500
2379,-304.687500
2380,-304.687500
2381,-308.593750
2382,-308.593750
2383,-312.500000
2384,-312.500000
2385,-312.500000
2386,-312.500000
2387,-316.406250
2388,-316.406250
2389,-316.406250
2390,-316.406250
2391,-320.312500
2392,-320.312500
2393,-320.312500
2394,-320.312500
2395,-320.312500
2396,-320.312500
2397,-320.312500
2398,-320.312500
2399,-320.312500
2400,-320.312500
2401,-324.218750
2402,-320.312500
2403,-320.312500
2404,-320.312500
2405,-320.312500
2406,-320.312500
2407,-320.312500
2408,-320.312500
2409,-320.312500
2410,-320.312500
2411,-320.312500
2412,-320.312500
2413,-320.312500
2414,-316.406250
2415,-316.406250
2416,-316.406250
2417,-316.406250
2418,-312.500000
2419,-312.500000
2420,-312.500000
2421,-308.593750
2422,-308.593750
2423,-308.593750
2424,-308.593750
2425,-304.687500
2426,-304.687500
2427,-300.781250
2428,-300.781250
2429,-300.781250
2430,-300.781250
2431,-296.875000
2432,-292.968750
2433,-292.968750
2434,-289.062500
2435,-285.156250
2436,-285.156250
2437,-285.156250
2438,-281.250000
2439,-277.343750
2440,-277.343750
2441,-273.437500
2442,-273.437500
2443,-269.531250
2444,-265.625000
2445,-265.625000
2446,-261.718750
2447,-257.812500
2448,-257.812500
2449,-253.906250
2450,-250.000000
2451,-246.093750
2452,-246.093750
2453,-242.187500
2454,-238.281250
2455,-238.281250
2456,-234.375000
2457,-230.468750
2458,-226.562500
2459,-222.656250
2460,-222.656250
2461,-218.750000
2462,-214.843750
2463,-210.937500
2464,-207.031250
2465,-203.125000
2466,-199.218750
2467,-195.312500
2468,-191.406250
2469,-191.406250
2470,-187.500000
2471,-183.593750
2472,-179.687500
2473,-175.781250
2474,-171.875000
2475,-167.968750
2476,-164.062500
2477,-160.156250
2478,-156.250000
2479,-152.343750
2480,-148.437500
2481,-144.531250
2482,-140.625000
2483,-136.718750
2484,-132.812500
2485,-128.906250
2486,-125.000000
2487,-121.093750
2488,-117.187500
2489,-113.281250
2490,-109.375000
2491,-105.468750
2492,-101.562500
2493,-97.656250
2494,-93.750000
2495,-89.843750
2496,-85.937500
2497,-82.031250
2498,-78.125000
2499,-74.218750
2500,-70.312500
2501,-66.406250
2502,-62.500000
2503,-58.593750
2504,-54.687500
2505,-50.781250
2506,-46.875000
2507,-42.968750
2508,-39.062500
2509,-35.156250
2510,-31.250000
2511,-27.343750
2512,-23.437500
2513,-19.531250
2514,-15.625000
2515,-11.718750
2516,-7.812500
2517,-3.906250
2518,0.000000
2519,3.906250
2520,7.812500
2521,7.812500
2522,11.718750
2523,15.625000
2524,19.531250
2525,23.437500
2526,27.343750
2527,31.250000
2528,31.250000
2529,35.156250
2530,39.062500
2531,42.968750
2532,46.875000
2533,46.875000
2534,50.781250
2535,54.687500
2536,58.593750
2537,62.500000
2538,62.500000
2539,66.406250
2540,70.312500
2541,74.218750
2542,74.218750
2543,78.125000
2544,82.031250
2545,82.031250
2546,85.937500
2547,89.843750
2548,89.843750
2549,93.750000
2550,97.656250
2551,97.656250
2552,101.562500
2553,101.562500
2554,105.468750
2555,105.468750
2556,109.375000
2557,113.281250
2558,113.281250
2559,113.281250
2560,117.187500
2561,117.187500
2562,121.093750
2563,121.093750
2564,125.000000
2565,125.000000
2566,128.906250
2567,128.906250
2568,132.812500
2569,132.812500
2570,132.812500
2571,136.718750
2572,136.718750
2573,136.718750
2574,140.625000
2575,140.625000
2576,144.531250
2577,144.531250
2578,144.531250
2579,148.437500
2580,148.437500
2581,148.437500
2582,148.437500
2583,148.437500
2584,152.343750
2585,152.343750
2586,152.343750
2587,152.343750
2588,152.343750
2589,156.250000
2590,156.250000
2591,156.250000
2592,156.250000
2593,156.250000
2594,160.156250
2595,160.156250
2596,160.156250
2597,160.156250
2598,160.156250
2599,160.156250
2600,160.156250
2601,160.156250
2602,160.156250
2603,160.156250
2604,164.062500
2605,160.156250
2606,160.156250
2607,164.062500
2608,164.062500
2609,160.156250
2610,164.062500
2611,164.062500
2612,160.156250
2613,164.062500
2614,160.156250
2615,164.062500
2616,164.062500
2617,160.156250
2618,160.156250
2619,160.156250
2620,160.156250
2621,160.156250
2622,160.156250
2623,160.156250
2624,160.156250
2625,156.250000
2626,156.250000
2627,156.250000
2628,156.250000
2629,156.250000
2630,152.343750
2631,156.250000
2632,152.343750
2633,152.343750
2634,152.343750
2635,152.343750
2636,152.343750
2637,148.437500
2638,148.437500
2639,148.437500
2640,148.437500
2641,144.531250
2642,144.531250
2643,144.531250
2644,140.625000
2645,140.625000
2646,140.625000
2647,136.718750
2648,136.718750
2649,136.718750
2650,132.812500
2651,132.812500
2652,132.812500
2653,128.906250
2654,128.906250
2655,125.000000
2656,125.000000
2657,121.093750
2658,121.093750
2659,117.187500
2660,117.187500
2661,113.281250
2662,113.281250
2663,109.375000
2664,109.375000
2665,105.468750
2666,105.468750
2667,101.562500
2668,101.562500
2669,97.656250
2670,93.750000
2671,93.750000
2672,89.843750
2673,85.937500
2674,85.937500
2675,82.031250
2676,78.125000
2677,78.125000
2678,74.218750
2679,70.312500
2680,70.312500
2681,66.406250
2682,62.500000
2683,58.593750
2684,58.593750
2685,54.687500
2686,50.781250
2687,46.875000
2688,42.968750
2689,42.968750
2690,39.062500
2691,35.156250
2692,31.250000
2693,27.343750
2694,27.343750
2695,23.437500
2696,19.531250
2697,15.625000
2698,11.718750
2699,7.812500
2700,3.906250
2701,0.000000
2702,0.000000
2703,-7.812500
2704,-7.812500
2705,-11.718750
2706,-15.625000
2707,-19.531250
2708,-23.437500
2709,-27.343750
2710,-31.250000
2711,-35.156250
2712,-39.062500
2713,-42.968750
2714,-46.875000
2715,-50.781250
2716,-54.687500
2717,-58.593750
2718,-62.500000
2719,-66.406250
2720,-70.312500
2721,-74.218750
2722,-78.125000
2723,-82.031250
2724,-85.937500
2725,-89.843750
2726,-93.750000
2727,-97.656250
2728,-101.562500
2729,-105.468750
2730,-109.375000
2731,-113.281250
2732,-117.187500
2733,-121.093750
2734,-125.000000
2735,-128.906250
2736,-132.812500
2737,-136.718750
2738,-140.625000
2739,-144.531250
2740,-148.437500
2741,-152.343750
2742,-156.250000
2743,-160.156250
2744,-164.062500
2745,-167.968750
2746,-171.875000
2747,-175.781250
2748,-179.687500
2749,-183.593750
2750,-183.593750
2751,-191.406250
2752,-191.406250
2753,-195.312500
2754,-199.218750
2755,-203.125000
2756,-207.031250
2757,-210.937500
2758,-214.843750
2759,-214.843750
2760,-218.750000
2761,-222.656250
2762,-226.562500
2763,-230.468750
2764,-234.375000
2765,-234.375000
2766,-238.281250
2767,-242.187500
2768,-246.093750
2769,-246.093750
2770,-250.000000
2771,-253.906250
2772,-253.906250
2773,-257.812500
2774,-261.718750
2775,-261.718750
2776,-265.625000
2777,-269.531250
2778,-273.437500
2779,-273.437500
2780,-277.343750
2781,-277.343750
2782,-281.250000
2783,-285.156250
2784,-285.156250
2785,-289.062500
2786,-289.062500
2787,-292.968750
2788,-292.968750
2789,-292.968750
2790,-296.875000
2791,-300.781250
2792,-300.781250
2793,-300.781250
2794,-304.687500
2795,-304.687500
2796,-304.687500
2797,-308.593750
2798,-308.593750
2799,-308.593750
2800,-312.500000
2801,-312.500000
2802,-312.500000
2803,-316.406250
2804,-316.406250
2805,-316.406250
2806,-316.406250
2807,-320.312500
2808,-320.312500
2809,-320.312500
2810,-320.312500
2811,-320.312500
2812,-320.312500
2813,-320.312500
2814,-320.312500
2815,-320.312500
2816,-324.218750
2817,-324.218750
2818,-324.218750
2819,-324.218750
2820,-324.218750
2821,-324.218750
2822,-324.218750
2823,-320.312500
2824,-320.312500
2825,-320.312500
2826,-320.312500
2827,-320.312500
2828,-320.312500
2829,-320.312500
2830,-320.312500
2831,-316.406250
2832,-316.406250
2833,-316.406250
2834,-316.406250
2835,-312.500000
2836,-312.500000
2837,-312.500000
2838,-308.593750
2839,-308.593750
2840,-308.593750
2841,-308.593750
2842,-304.687500
2843,-304.687500
2844,-300.781250
2845,-300.781250
2846,-300.781250
2847,-296.875000
2848,-296.875000
2849,-292.968750
2850,-292.968750
2851,-289.062500
2852,-289.062500
2853,-285.156250
2854,-285.156250
2855,-281.250000
2856,-281.250000
2857,-277.343750
2858,-273.437500
2859,-273.437500
2860,-269.531250
2861,-269.531250
2862,-265.625000
2863,-261.718750
2864,-257.812500
2865,-257.812500
2866,-257.812500
2867,-250.000000
2868,-246.093750
2869,-246.093750
2870,-242.187500
2871,-238.281250
2872,-234.375000
2873,-234.375000
2874,-230.468750
2875,-226.562500
2876,-222.656250
2877,-222.656250
2878,-218.750000
2879,-214.843750
2880,-210.937500
2881,-207.031250
2882,-203.125000
2883,-199.218750
2884,-195.312500
2885,-191.406250
2886,-187.500000
2887,-187.500000
2888,-183.593750
2889,-179.687500
2890,-175.781250
2891,-171.875000
2892,-167.968750
2893,-164.062500
2894,-160.156250
2895,-156.250000
2896,-152.343750
2897,-148.437500
2898,-144.531250
2899,-140.625000
2900,-136.718750
2901,-132.812500
2902,-128.906250
2903,-125.000000
2904,-121.093750
2905,-117.187500
2906,-113.281250
2907,-109.375000
2908,-105.468750
2909,-101.562500
2910,-97.656250
2911,-93.750000
2912,-89.843750
2913,-85.937500
2914,-82.031250
2915,-78.125000
2916,-74.218750
2917,-70.312500
2918,-66.406250
2919,-62.500000
2920,-58.593750
2921,-54.687500
2922,-50.781250
2923,-46.875000
2924,-42.968750
2925,-39.062500
2926,-35.156250
2927,-31.250000
2928,-27.343750
2929,-23.437500
2930,-19.531250
2931,-15.625000
2932,-11.718750
2933,-7.812500
2934,-3.906250
2935,0.000000
2936,3.906250
2937,7.812500
2938,7.812500
2939,11.718750
2940,15.625000
2941,19.531250
2942,23.437500
2943,27.343750
2944,31.250000
2945,31.250000
2946,35.156250
2947,39.062500
2948,42.968750
2949,46.875000
2950,50.781250
2951,50.781250
2952,54.687500
2953,58.593750
2954,62.500000
2955,62.500000
2956,66.406250
2957,70.312500
2958,70.312500
2959,74.218750
2960,78.125000
2961,82.031250
2962,82.031250
2963,85.937500
2964,89.843750
2965,89.843750
2966,93.750000
2967,93.750000
2968,97.656250
2969,101.562500
2970,101.562500
2971,105.468750
2972,105.468750
2973,109.375000
2974,109.375000
2975,113.281250
2976,113.281250
2977,117.187500
2978,121.093750
2979,121.093750
2980,121.093750
2981,125.000000
2982,125.000000
2983,128.906250
2984,128.906250
2985,132.812500
2986,132.812500
2987,132.812500
2988,136.718750
2989,136.718750
2990,136.718750
2991,140.625000
2992,140.625000
2993,140.625000
2994,144.531250
2995,144.531250
2996,144.531250
2997,148.437500
2998,148.437500
2999,148.437500
3000,148.437500
3001,152.343750
3002,152.343750
3003,152.343750
3004,152.343750
3005,156.250000
3006,156.250000
3007,156.250000
3008,156.250000
3009,156.250000
3010,156.250000
3011,160.156250
3012,160.156250
3013,160.156250
3014,160.156250
3015,160.156250
3016,164.062500
3017,156.250000
3018,160.156250
3019,160.156250
3020,160.156250
3021,160.156250
3022,164.062500
3023,164.062500
3024,164.062500
3025,160.156250
3026,164.062500
3027,164.062500
3028,164.062500
3029,164.062500
3030,164.062500
3031,164.062500
3032,160.156250
3033,164.062500
3034,164.062500
3035,160.156250
3036,160.156250
3037,160.156250
3038,160.156250
3039,160.156250
3040,160.156250
3041,160.156250
3042,160.156250
3043,160.156250
3044,156.250000
3045,156.250000
3046,156.250000
3047,156.250000
3048,156.250000
3049,152.343750
3050,152.343750
3051,152.343750
3052,152.343750
3053,152.343750
3054,148.437500
3055,148.437500
3056,148.437500
3057,148.437500
3058,144.531250
3059,144.531250
3060,140.625000
3061,140.625000
3062,140.625000
3063,136.718750
3064,136.718750
3065,136.718750
3066,132.812500
3067,132.812500
3068,132.812500
3069,128.906250
3070,128.906250
3071,128.906250
3072,125.000000
3073,121.093750
3074,121.093750
3075,121.093750
3076,117.187500
3077,117.187500
3078,113.281250
3079,113.281250
3080,109.375000
3081,109.375000
3082,105.468750
3083,101.562500
3084,101.562500
3085,97.656250
3086,97.656250
3087,93.750000
3088,89.843750
3089,89.843750
3090,85.937500
3091,85.937500
3092,82.031250
3093,78.125000
3094,78.125000
3095,74.218750
3096,70.312500
3097,70.312500
3098,66.406250
3099,62.500000
3100,58.593750
3101,58.593750
3102,54.687500
3103,50.781250
3104,46.875000
3105,42.968750
3106,42.968750
3107,39.062500
3108,35.156250
3109,31.250000
3110,27.343750
3111,27.343750
3112,23.437500
3113,19.531250
3114,15.625000
3115,11.718750
3116,7.812500
3117,3.906250
3118,0.000000
3119,-3.906250
3120,-7.812500
3121,-11.718750
3122,-11.718750
3123,-15.625000
3124,-19.531250
3125,-23.437500
3126,-27.343750
3127,-31.250000
3128,-35.156250
3129,-39.062500
3130,-42.968750
3131,-46.875000
3132,-50.781250
3133,-54.687500
3134,-58.593750
3135,-62.500000
3136,-66.406250
3137,-70.312500
3138,-74.218750
3139,-78.125000
3140,-82.031250
3141,-85.937500
3142,-89.843750
3143,-93.750000
3144,-97.656250
3145,-101.562500
3146,-105.468750
3147,-109.375000
3148,-113.281250
3149,-117.187500
3150,-121.093750
3151,-125.000000
3152,-128.906250
3153,-132.812500
3154,-136.718750
3155,-140.625000
3156,-144.531250
3157,-148.437500
3158,-152.343750
3159,-156.250000
3160,-160.156250
3161,-164.062500
3162,-167.968750
3163,-171.875000
3164,-175.781250
3165,-179.687500
3166,-183.593750
3167,-187.500000
3168,-191.406250
3169,-191.406250
3170,-195.312500
3171,-199.218750
3172,-203.125000
3173,-207.031250
3174,-210.937500
3175,-214.843750
3176,-214.843750
3177,-218.750000
3178,-222.656250
3179,-226.562500
3180,-230.468750
3181,-234.375000
3182,-234.375000
3183,-238.281250
3184,-242.187500
3185,-246.093750
3186,-250.000000
3187,-250.000000
3188,-253.906250
3189,-257.812500
3190,-257.812500
3191,-261.718750
3192,-265.625000
3193,-265.625000
3194,-269.531250
3195,-269.531250
3196,-273.437500
3197,-277.343750
3198,-277.343750
3199,-281.250000
3200,-281.250000
3201,-285.156250
3202,-289.062500
3203,-289.062500
3204,-292.968750
3205,-292.968750
3206,-292.968750
3207,-296.875000
3208,-296.875000
3209,-300.781250
3210,-300.781250
3211,-304.687500
3212,-304.687500
3213,-304.687500
3214,-308.593750
3215,-308.593750
3216,-312.500000
3217,-312.500000
3218,-312.500000
3219,-312.500000
3220,-312.500000
3221,-316.406250
3222,-316.406250
3223,-316.406250
3224,-316.406250
3225,-316.406250
3226,-320.312500
3227,-320.312500
3228,-320.312500
3229,-320.312500
3230,-320.312500
3231,-320.312500
3232,-320.312500
3233,-324.218750
3234,-324.218750
3235,-324.218750
3236,-324.218750
3237,-320.312500
3238,-320.312500
3239,-320.312500
3240,-320.312500
3241,-320.312500
3242,-320.312500
3243,-320.312500
3244,-320.312500
3245,-320.312500
3246,-320.312500
3247,-320.312500
3248,-316.406250
3249,-316.406250
3250,-316.406250
3251,-316.406250
3252,-312.500000
3253,-308.593750
3254,-312.500000
3255,-312.500000
3256,-308.593750
3257,-308.593750
3258,-308.593750
3259,-304.687500
3260,-304.687500
3261,-300.781250
3262,-300.781250
3263,-300.781250
3264,-296.875000
3265,-296.875000
3266,-292.968750
3267,-292.968750
3268,-289.062500
3269,-289.062500
3270,-285.156250
3271,-285.156250
3272,-281.250000
3273,-277.343750
3274,-277.343750
3275,-273.437500
3276,-273.437500
3277,-269.531250
3278,-265.625000
3279,-265.625000
3280,-261.718750
3281,-257.812500
3282,-257.812500
3283,-253.906250
3284,-250.000000
3285,-246.093750
3286,-246.093750
3287,-242.187500
3288,-238.281250
3289,-238.281250
3290,-234.375000
3291,-230.468750
3292,-226.562500
3293,-222.656250
3294,-218.750000
3295,-214.843750
3296,-214.843750
3297,-210.937500
3298,-207.031250
3299,-203.125000
3300,-199.218750
3301,-195.312500
3302,-191.406250
3303,-187.500000
3304,-183.593750
3305,-183.593750
3306,-175.781250
3307,-175.781250
3308,-167.968750
3309,-167.968750
3310,-160.156250
3311,-160.156250
3312,-156.250000
3313,-152.343750
3314,-148.437500
3315,-144.531250
3316,-140.625000
3317,-136.718750
3318,-132.812500
3319,-128.906250
3320,-125.000000
3321,-121.093750
3322,-117.187500
3323,-113.281250
3324,-109.375000
3325,-105.468750
3326,-101.562500
3327,-97.656250
3328,-93.750000
3329,-89.843750
3330,-85.937500
3331,-82.031250
3332,-74.218750
3333,-74.218750
3334,-70.312500
3335,-66.406250
3336,-58.593750
3337,-54.687500
3338,-54.687500
3339,-50.781250
3340,-42.968750
3341,-42.968750
3342,-35.156250
3343,-35.156250
3344,-27.343750
3345,-27.343750
3346,-23.437500
3347,-19.531250
3348,-15.625000
3349,-11.718750
3350,-7.812500
3351,-3.906250
3352,0.000000
3353,3.906250
3354,7.812500
3355,11.718750
3356,15.625000
3357,19.531250
3358,19.531250
3359,23.437500
3360,27.343750
3361,31.250000
3362,35.156250
3363,39.062500
3364,39.062500
3365,42.968750
3366,46.875000
3367,50.781250
3368,54.687500
3369,54.687500
3370,58.593750
3371,58.593750
3372,66.406250
3373,66.406250
3374,70.312500
3375,74.218750
3376,74.218750
3377,78.125000
3378,82.031250
3379,82.031250
3380,85.937500
3381,89.843750
3382,89.843750
3383,93.750000
3384,97.656250
3385,97.656250
3386,101.562500
3387,101.562500
3388,105.468750
3389,105.468750
3390,109.375000
3391,113.281250
3392,113.281250
3393,117.187500
3394,117.187500
3395,117.187500
3396,121.093750
3397,121.093750
3398,125.000000
3399,125.000000
3400,128.906250
3401,128.906250
3402,132.812500
3403,128.906250
3404,132.812500
3405,136.718750
3406,136.718750
3407,136.718750
3408,140.625000
3409,140.625000
3410,144.531250
3411,144.531250
3412,144.531250
3413,144.531250
3414,148.437500
3415,148.437500
3416,148.437500
3417,152.343750
3418,152.343750
3419,152.343750
3420,152.343750
3421,152.343750
3422,156.250000
3423,156.250000
3424,156.250000
3425,156.250000
3426,156.250000
3427,156.250000
3428,160.156250
3429,160.156250
3430,160.156250
3431,160.156250
3432,160.156250
3433,160.156250
3434,160.156250
3435,160.156250
3436,160.156250
3437,164.062500
3438,160.156250
3439,160.156250
3440,164.062500
3441,160.156250
3442,164.062500
3443,160.156250
3444,160.156250
3445,164.062500
3446,160.156250
3447,164.062500
3448,164.062500
3449,160.156250
3450,160.156250
3451,160.156250
3452,160.156250
3453,160.156250
3454,160.156250
3455,160.156250
3456,160.156250
3457,160.156250
3458,160.156250
3459,156.250000
3460,156.250000
3461,156.250000
3462,156.250000
3463,156.250000
3464,156.250000
3465,152.343750
3466,152.343750
3467,152.343750
3468,152.343750
3469,152.343750
3470,148.437500
3471,148.437500
3472,148.437500
3473,148.437500
3474,148.437500
3475,144.531250
3476,144.531250
3477,140.625000
3478,140.625000
3479,140.625000
3480,140.625000
3481,136.718750
3482,136.718750
3483,136.718750
3484,132.812500
3485,132.812500
3486,128.906250
3487,128.906250
3488,125.000000
3489,125.000000
3490,125.000000
3491,121.093750
3492,121.093750
3493,117.187500
3494,117.187500
3495,113.281250
3496,113.281250
3497,109.375000
3498,109.375000
3499,105.468750
3500,105.468750
3501,101.562500
3502,97.656250
3503,97.656250
3504,93.750000
3505,93.750000
3506,89.843750
3507,85.937500
3508,82.031250
3509,82.031250
3510,78.125000
3511,78.125000
3512,74.218750
3513,70.312500
3514,70.312500
3515,66.406250
3516,62.500000
3517,58.593750
3518,58.593750
3519,54.687500
3520,50.781250
3521,46.875000
3522,42.968750
3523,42.968750
3524,39.062500
3525,35.156250
3526,31.250000
3527,27.343750
3528,23.437500
3529,19.531250
3530,19.531250
3531,15.625000
3532,11.718750
3533,7.812500
3534,3.906250
3535,0.000000
3536,-3.906250
3537,-3.906250
3538,-7.812500
3539,-15.625000
3540,-19.531250
3541,-19.531250
3542,-23.437500
3543,-27.343750
3544,-31.250000
3545,-35.156250
3546,-39.062500
3547,-42.968750
3548,-46.875000
3549,-50.781250
3550,-54.687500
3551,-58.593750
3552,-62.500000
3553,-66.406250
3554,-70.312500
3555,-74.218750
3556,-78.125000
3557,-82.031250
3558,-85.937500
3559,-89.843750
3560,-93.750000
3561,-97.656250
3562,-101.562500
3563,-105.468750
3564,-109.375000
3565,-113.281250
3566,-117.187500
3567,-121.093750
3568,-125.000000
3569,-128.906250
3570,-132.812500
3571,-136.718750
3572,-140.625000
3573,-144.531250
3574,-148.437500
3575,-152.343750
3576,-156.250000
3577,-160.156250
3578,-164.062500
3579,-167.968750
3580,-171.875000
3581,-175.781250
3582,-179.687500
3583,-183.593750
3584,-187.500000
3585,-187.500000
3586,-191.406250
3587,-195.312500
3588,-199.218750
3589,-203.125000
3590,-207.031250
3591,-210.937500
3592,-214.843750
3593,-218.750000
3594,-222.656250
3595,-222.656250
3596,-226.562500
3597,-230.468750
3598,-234.375000
3599,-234.375000
3600,-238.281250
3601,-242.187500
3602,-246.093750
3603,-250.000000
3604,-250.000000
3605,-253.906250
3606,-253.906250
3607,-257.812500
3608,-261.718750
3609,-265.625000
3610,-265.625000
3611,-269.531250
3612,-269.531250
3613,-273.437500
3614,-277.343750
3615,-277.343750
3616,-281.250000
3617,-281.250000
3618,-285.156250
3619,-285.156250
3620,-289.062500
3621,-292.968750
3622,-292.968750
3623,-292.968750
3624,-296.875000
3625,-296.875000
3626,-300.781250
3627,-300.781250
3628,-300.781250
3629,-304.687500
3630,-304.687500
3631,-304.687500
3632,-308.593750
3633,-308.593750
3634,-312.500000
3635,-312.500000
3636,-312.500000
3637,-312.500000
3638,-316.406250
3639,-316.406250
3640,-320.312500
3641,-316.406250
3642,-320.312500
3643,-320.312500
3644,-320.312500
3645,-320.312500
3646,-320.312500
3647,-320.312500
3648,-320.312500
3649,-320.312500
3650,-320.312500
3651,-324.218750
3652,-324.218750
3653,-320.312500
3654,-320.312500
3655,-320.312500
3656,-324.218750
3657,-320.312500
3658,-320.312500
3659,-320.312500
3660,-320.312500
3661,-320.312500
3662,-320.312500
3663,-320.312500
3664,-316.406250
3665,-316.406250
3666,-316.406250
3667,-316.406250
3668,-312.500000
3669,-312.500000
3670,-312.500000
3671,-312.500000
3672,-308.593750
3673,-308.593750
3674,-304.687500
3675,-304.687500
3676,-304.687500
3677,-304.687500
3678,-300.781250
3679,-300.781250
3680,-296.875000
3681,-296.875000
3682,-292.968750
3683,-292.968750
3684,-292.968750
3685,-289.062500
3686,-285.156250
3687,-285.156250
3688,-281.250000
3689,-281.250000
3690,-277.343750
3691,-277.343750
3692,-273.437500
3693,-269.531250
3694,-269.531250
3695,-265.625000
3696,-261.718750
3697,-261.718750
3698,-257.812500
3699,-253.906250
3700,-253.906250
3701,-250.000000
3702,-246.093750
3703,-242.187500
3704,-242.187500
3705,-238.281250
3706,-234.375000
3707,-230.468750
3708,-226.562500
3709,-226.562500
3710,-222.656250
3711,-218.750000
3712,-214.843750
3713,-210.937500
3714,-207.031250
3715,-207.031250
3716,-203.125000
3717,-199.218750
3718,-195.312500
3719,-191.406250
3720,-187.500000
3721,-183.593750
3722,-179.687500
3723,-175.781250
3724,-171.875000
3725,-167.968750
3726,-164.062500
3727,-164.062500
3728,-156.250000
3729,-152.343750
3730,-152.343750
3731,-148.437500
3732,-144.531250
3733,-136.718750
3734,-132.812500
3735,-128.906250
3736,-125.000000
3737,-121.093750
3738,-117.187500
3739,-113.281250
3740,-109.375000
3741,-109.375000
3742,-101.562500
3743,-97.656250
3744,-93.750000
3745,-89.843750
3746,-85.937500
3747,-82.031250
3748,-78.125000
3749,-74.218750
3750,-70.312500
3751,-66.406250
3752,-62.500000
3753,-58.593750
3754,-54.687500
3755,-50.781250
3756,-46.875000
3757,-42.968750
3758,-39.062500
3759,-35.156250
3760,-31.250000
3761,-31.250000
3762,-23.437500
3763,-19.531250
3764,-15.625000
3765,-11.718750
3766,-11.718750
3767,-7.812500
3768,-3.906250
3769,0.000000
3770,3.906250
3771,7.812500
3772,11.718750
3773,15.625000
3774,19.531250
3775,19.531250
3776,23.437500
3777,27.343750
3778,31.250000
3779,35.156250
3780,39.062500
3781,39.062500
3782,42.968750
3783,46.875000
3784,50.781250
3785,54.687500
3786,54.687500
3787,58.593750
3788,62.500000
3789,66.406250
3790,70.312500
3791,70.312500
3792,74.218750
3793,78.125000
3794,78.125000
3795,82.031250
3796,82.031250
3797,85.937500
3798,89.843750
3799,89.843750
3800,93.750000
3801,97.656250
3802,97.656250
3803,101.562500
3804,105.468750
3805,105.468750
3806,109.375000
3807,109.375000
3808,113.281250
3809,113.281250
3810,117.187500
3811,117.187500
3812,117.187500
3813,121.093750
3814,121.093750
3815,125.000000
3816,125.000000
3817,128.906250
3818,128.906250
3819,132.812500
3820,132.812500
3821,132.812500
3822,136.718750
3823,136.718750
3824,140.625000
3825,140.625000
3826,140.625000
3827,144.531250
3828,144.531250
3829,144.531250
3830,144.531250
3831,148.437500
3832,148.437500
3833,148.437500
3834,148.437500
3835,152.343750
3836,152.343750
3837,152.343750
3838,152.343750
3839,152.343750
3840,156.250000
3841,156.250000
3842,156.250000
3843,156.250000
3844,156.250000
3845,156.250000
3846,160.156250
3847,156.250000
3848,160.156250
3849,160.156250
3850,160.156250
3851,160.156250
3852,160.156250
3853,160.156250
3854,160.156250
3855,160.156250
3856,160.156250
3857,160.156250
3858,164.062500
3859,164.062500
3860,164.062500
3861,164.062500
3862,160.156250
3863,164.062500
3864,164.062500
3865,164.062500
3866,160.156250
3867,160.156250
3868,160.156250
3869,160.156250
3870,160.156250
3871,160.156250
3872,160.156250
3873,160.156250
3874,160.156250
3875,160.156250
3876,156.250000
3877,156.250000
3878,156.250000
3879,156.250000
3880,156.250000
3881,156.250000
3882,156.250000
3883,152.343750
3884,152.343750
3885,152.343750
3886,152.343750
3887,148.437500
3888,148.437500
3889,148.437500
3890,148.437500
3891,144.531250
3892,144.531250
3893,144.531250
3894,140.625000
3895,140.625000
3896,140.625000
3897,140.625000
3898,136.718750
3899,136.718750
3900,132.812500
3901,132.812500
3902,132.812500
3903,128.906250
3904,128.906250
3905,125.000000
3906,125.000000
3907,121.093750
3908,121.093750
3909,117.187500
3910,117.187500
3911,113.281250
3912,113.281250
3913,113.281250
3914,109.375000
3915,105.468750
3916,105.468750
3917,101.562500
3918,101.562500
3919,97.656250
3920,93.750000
3921,93.750000
3922,89.843750
3923,89.843750
3924,85.937500
3925,82.031250
3926,82.031250
3927,78.125000
3928,74.218750
3929,74.218750
3930,70.312500
3931,66.406250
3932,66.406250
3933,62.500000
3934,58.593750
3935,54.687500
3936,54.687500
3937,50.781250
3938,46.875000
3939,42.968750
3940,42.968750
3941,39.062500
3942,35.156250
3943,31.250000
3944,27.343750
3945,23.437500
3946,19.531250
3947,19.531250
3948,15.625000
3949,11.718750
3950,7.812500
3951,3.906250
3952,0.000000
3953,-3.906250
3954,-7.812500
3955,-11.718750
3956,-15.625000
3957,-15.625000
3958,-19.531250
3959,-27.343750
3960,-27.343750
3961,-31.250000
3962,-35.156250
3963,-39.062500
3964,-42.968750
3965,-46.875000
3966,-50.781250
3967,-54.687500
3968,-58.593750
3969,-62.500000
3970,-66.406250
3971,-70.312500
3972,-74.218750
3973,-78.125000
3974,-82.031250
3975,-85.937500
3976,-89.843750
3977,-93.750000
3978,-101.562500
3979,-101.562500
3980,-105.468750
3981,-109.375000
3982,-113.281250
3983,-117.187500
3984,-121.093750
3985,-125.000000
3986,-128.906250
3987,-132.812500
3988,-136.718750
3989,-140.625000
3990,-144.531250
3991,-148.437500
3992,-156.250000
3993,-156.250000
3994,-160.156250
3995,-164.062500
3996,-167.968750
3997,-171.875000
3998,-175.781250
3999,-179.687500
4000,-183.593750
4001,-187.500000
4002,-191.406250
4003,-191.406250
4004,-195.312500
4005,-199.218750
4006,-203.125000
4007,-207.031250
4008,-210.937500
4009,-214.843750
4010,-218.750000
4011,-222.656250
4012,-222.656250
4013,-226.562500
4014,-230.468750
4015,-234.375000
4016,-238.281250
4017,-238.281250
4018,-242.187500
4019,-246.093750
4020,-250.000000
4021,-250.000000
4022,-253.906250
4023,-257.812500
4024,-257.812500
4025,-261.718750
4026,-265.625000
4027,-265.625000
4028,-269.531250
4029,-273.437500
4030,-273.437500
4031,-277.343750
4032,-277.343750
4033,-281.250000
4034,-281.250000
4035,-285.156250
4036,-289.062500
4037,-289.062500
4038,-292.968750
4039,-292.968750
4040,-292.968750
4041,-296.875000
4042,-296.875000
4043,-300.781250
4044,-300.781250
4045,-304.687500
4046,-304.687500
4047,-304.687500
4048,-308.593750
4049,-308.593750
4050,-308.593750
4051,-312.500000
4052,-312.500000
4053,-312.500000
4054,-312.500000
4055,-316.406250
4056,-316.406250
4057,-316.406250
4058,-316.406250
4059,-316.406250
4060,-320.312500
4061,-316.406250
4062,-320.312500
4063,-320.312500
4064,-320.312500
4065,-320.312500
4066,-320.312500
4067,-320.312500
4068,-320.312500
4069,-320.312500
4070,-320.312500
4071,-320.312500
4072,-320.312500
4073,-320.312500
4074,-320.312500
4075,-320.312500
4076,-320.312500
4077,-320.312500
4078,-320.312500
4079,-320.312500
4080,-316.406250
4081,-316.406250
4082,-316.406250
4083,-316.406250
4084,-312.500000
4085,-312.500000
4086,-312.500000
4087,-312.500000
4088,-308.593750
4089,-308.593750
4090,-308.593750
4091,-304.687500
4092,-304.687500
4093,-304.687500
4094,-300.781250
4095,-300.781250
4096,-300.781250
4097,-296.875000
4098,-296.875000
4099,-292.968750
4100,-292.968750
4101,-289.062500
4102,-289.062500
4103,-285.156250
4104,-281.250000
4105,-281.250000
4106,-277.343750
4107,-277.343750
4108,-273.437500
4109,-273.437500
4110,-269.531250
4111,-269.531250
4112,-265.625000
4113,-261.718750
4114,-257.812500
4115,-257.812500
4116,-253.906250
4117,-250.000000
4118,-250.000000
4119,-246.093750
4120,-242.187500
4121,-238.281250
4122,-234.375000
4123,-234.375000
4124,-230.468750
4125,-226.562500
4126,-222.656250
4127,-218.750000
4128,-214.843750
4129,-214.843750
4130,-210.937500
4131,-207.031250
4132,-203.125000
4133,-199.218750
4134,-195.312500
4135,-191.406250
4136,-187.500000
4137,-187.500000
4138,-179.687500
4139,-179.687500
4140,-175.781250
4141,-171.875000
4142,-167.968750
4143,-164.062500
4144,-160.156250
4145,-156.250000
4146,-152.343750
4147,-148.437500
4148,-144.531250
4149,-140.625000
4150,-136.718750
4151,-132.812500
4152,-128.906250
4153,-125.000000
4154,-121.093750
4155,-117.187500
4156,-113.281250
4157,-109.375000
4158,-105.468750
4159,-101.562500
4160,-97.656250
4161,-93.750000
4162,-89.843750
4163,-85.937500
4164,-82.031250
4165,-78.125000
4166,-74.218750
4167,-70.312500
4168,-66.406250
4169,-62.500000
4170,-58.593750
4171,-54.687500
4172,-50.781250
4173,-46.875000
4174,-42.968750
4175,-39.062500
4176,-35.156250
4177,-31.250000
4178,-31.250000
4179,-23.437500
4180,-19.531250
4181,-15.625000
4182,-11.718750
4183,-7.812500
4184,-3.906250
4185,0.000000
4186,0.000000
4187,7.812500
4188,7.812500
4189,11.718750
4190,15.625000
4191,15.625000
4192,23.437500
4193,27.343750
4194,27.343750
4195,35.156250
4196,35.156250
4197,39.062500
4198,42.968750
4199,46.875000
4200,46.875000
4201,50.781250
4202,54.687500
4203,54.687500
4204,62.500000
4205,62.500000
4206,66.406250
4207,70.312500
4208,70.312500
4209,74.218750
4210,78.125000
4211,78.125000
4212,82.031250
4213,85.937500
4214,85.937500
4215,89.843750
4216,93.750000
4217,93.750000
4218,97.656250
4219,97.656250
4220,101.562500
4221,105.468750
4222,101.562500
4223,109.375000
4224,109.375000
4225,113.281250
4226,113.281250
4227,117.187500
4228,121.093750
4229,121.093750
4230,121.093750
4231,125.000000
4232,125.000000
4233,125.000000
4234,128.906250
4235,128.906250
4236,128.906250
4237,132.812500
4238,132.812500
4239,136.718750
4240,136.718750
4241,140.625000
4242,140.625000
4243,140.625000
4244,144.531250
4245,144.531250
4246,144.531250
4247,144.531250
4248,148.437500
4249,148.437500
4250,148.437500
4251,148.437500
4252,152.343750
4253,152.343750
4254,152.343750
4255,152.343750
4256,152.343750
4257,156.250000
4258,156.250000
4259,156.250000
4260,156.250000
4261,160.156250
4262,160.156250
4263,160.156250
4264,160.156250
4265,160.156250
4266,160.156250
4267,160.156250
4268,160.156250
4269,160.156250
4270,160.156250
4271,160.156250
4272,164.062500
4273,164.062500
4274,164.062500
4275,164.062500
4276,164.062500
4277,164.062500
4278,160.156250
4279,164.062500
4280,160.156250
4281,160.156250
4282,160.156250
4283,160.156250
4284,160.156250
4285,160.156250
4286,160.156250
4287,160.156250
4288,160.156250
4289,160.156250
4290,160.156250
4291,160.156250
4292,160.156250
4293,160.156250
4294,156.250000
4295,156.250000
4296,156.250000
4297,156.250000
4298,156.250000
4299,156.250000
4300,152.343750
4301,152.343750
4302,152.343750
4303,152.343750
4304,148.437500
4305,148.437500
4306,148.437500
4307,148.437500
4308,144.531250
4309,144.531250
4310,144.531250
4311,140.625000
4312,140.625000
4313,140.625000
4314,136.718750
4315,136.718750
4316,136.718750
4317,132.812500
4318,132.812500
4319,128.906250
4320,128.906250
4321,128.906250
4322,125.000000
4323,125.000000
4324,121.093750
4325,121.093750
4326,117.187500
4327,117.187500
4328,117.187500
4329,113.281250
4330,113.281250
4331,109.375000
4332,105.468750
4333,105.468750
4334,101.562500
4335,101.562500
4336,97.656250
4337,93.750000
4338,93.750000
4339,89.843750
4340,85.937500
4341,85.937500
4342,82.031250
4343,82.031250
4344,78.125000
4345,74.218750
4346,74.218750
4347,70.312500
4348,66.406250
4349,62.500000
4350,62.500000
4351,58.593750
4352,54.687500
4353,50.781250
4354,50.781250
4355,46.875000
4356,42.968750
4357,39.062500
4358,35.156250
4359,31.250000
4360,31.250000
4361,27.343750
4362,23.437500
4363,19.531250
4364,15.625000
4365,11.718750
4366,11.718750
4367,7.812500
4368,3.906250
4369,0.000000
4370,-3.906250
4371,-7.812500
4372,-11.718750
4373,-15.625000
4374,-19.531250
4375,-23.437500
4376,-27.343750
4377,-31.250000
4378,-35.156250
4379,-39.062500
4380,-42.968750
4381,-46.875000
4382,-50.781250
4383,-54.687500
4384,-54.687500
4385,-58.593750
4386,-66.406250
4387,-70.312500
4388,-70.312500
4389,-78.125000
4390,-82.031250
4391,-85.937500
4392,-85.937500
4393,-93.750000
4394,-93.750000
4395,-101.562500
4396,-105.468750
4397,-109.375000
4398,-109.375000
4399,-113.281250
4400,-121.093750
4401,-125.000000
4402,-125.000000
4403,-132.812500
4404,-136.718750
4405,-140.625000
4406,-144.531250
4407,-148.437500
4408,-152.343750
4409,-152.343750
4410,-160.156250
4411,-160.156250
4412,-164.062500
4413,-167.968750
4414,-171.875000
4415,-175.781250
4416,-179.687500
4417,-183.593750
4418,-187.500000
4419,-191.406250
4420,-195.312500
4421,-199.218750
4422,-203.125000
4423,-203.125000
4424,-207.031250
4425,-210.937500
4426,-214.843750
4427,-218.750000
4428,-222.656250
4429,-226.562500
4430,-226.562500
4431,-230.468750
4432,-234.375000
4433,-238.281250
4434,-242.187500
4435,-242.187500
4436,-246.093750
4437,-250.000000
4438,-253.906250
4439,-253.906250
4440,-257.812500
4441,-257.812500
4442,-261.718750
4443,-265.625000
4444,-269.531250
4445,-269.531250
4446,-273.437500
4447,-273.437500
4448,-277.343750
4449,-281.250000
4450,-281.250000
4451,-285.156250
4452,-285.156250
4453,-289.062500
4454,-289.062500
4455,-292.968750
4456,-292.968750
4457,-296.875000
4458,-296.875000
4459,-296.875000
4460,-300.781250
4461,-300.781250
4462,-304.687500
4463,-304.687500
4464,-304.687500
4465,-308.593750
4466,-308.593750
4467,-308.593750
4468,-308.593750
4469,-312.500000
4470,-312.500000
4471,-316.406250
4472,-316.406250
4473,-316.406250
4474,-316.406250
4475,-316.406250
4476,-320.312500
4477,-320.312500
4478,-320.312500
4479,-320.312500
4480,-320.312500
4481,-320.312500
4482,-320.312500
4483,-320.312500
4484,-320.312500
4485,-320.312500
4486,-320.312500
4487,-320.312500
4488,-320.312500
4489,-320.312500
4490,-320.312500
4491,-320.312500
4492,-320.312500
4493,-320.312500
4494,-320.312500
4495,-320.312500
4496,-320.312500
4497,-316.406250
4498,-316.406250
4499,-316.406250
4500,-316.406250
4501,-312.500000
4502,-312.500000
4503,-312.500000
4504,-312.500000
4505,-312.500000
4506,-308.593750
4507,-308.593750
4508,-304.687500
4509,-304.687500
4510,-304.687500
4511,-300.781250
4512,-300.781250
4513,-296.875000
4514,-296.875000
4515,-296.875000
4516,-292.968750
4517,-289.062500
4518,-289.062500
4519,-289.062500
4520,-285.156250
4521,-281.250000
4522,-281.250000
4523,-277.343750
4524,-277.343750
4525,-273.437500
4526,-273.437500
4527,-269.531250
4528,-265.625000
4529,-265.625000
4530,-261.718750
4531,-257.812500
4532,-257.812500
4533,-253.906250
4534,-250.000000
4535,-246.093750
4536,-246.093750
4537,-242.187500
4538,-238.281250
4539,-234.375000
4540,-234.375000
4541,-230.468750
4542,-226.562500
4543,-222.656250
4544,-218.750000
4545,-214.843750
4546,-214.843750
4547,-210.937500
4548,-207.031250
4549,-203.125000
4550,-199.218750
4551,-195.312500
4552,-191.406250
4553,-187.500000
4554,-183.593750
4555,-183.593750
4556,-179.687500
4557,-175.781250
4558,-171.875000
4559,-167.968750
4560,-164.062500
4561,-160.156250
4562,-156.250000
4563,-152.343750
4564,-144.531250
4565,-144.531250
4566,-140.625000
4567,-136.718750
4568,-132.812500
4569,-128.906250
4570,-125.000000
4571,-121.093750
4572,-117.187500
4573,-113.281250
4574,-109.375000
4575,-105.468750
4576,-101.562500
4577,-97.656250
4578,-93.750000
4579,-89.843750
4580,-85.937500
4581,-82.031250
4582,-78.125000
4583,-74.218750
4584,-70.312500
4585,-66.406250
4586,-62.500000
4587,-58.593750
4588,-54.687500
4589,-50.781250
4590,-46.875000
4591,-42.968750
4592,-39.062500
4593,-35.156250
4594,-31.250000
4595,-27.343750
4596,-23.437500
4597,-19.531250
4598,-15.625000
4599,-11.718750
4600,-7.812500
4601,-3.906250
4602,0.000000
4603,3.906250
4604,7.812500
4605,7.812500
4606,11.718750
4607,15.625000
4608,19.531250
4609,23.437500
4610,27.343750
4611,31.250000
4612,31.250000
4613,35.156250
4614,39.062500
4615,42.968750
4616,46.875000
4617,46.875000
4618,50.781250
4619,54.687500
4620,58.593750
4621,62.500000
4622,62.500000
4623,66.406250
4624,70.312500
4625,70.312500
4626,74.218750
4627,78.125000
4628,78.125000
4629,82.031250
4630,85.937500
4631,89.843750
4632,89.843750
4633,93.750000
4634,93.750000
4635,97.656250
4636,97.656250
4637,101.562500
4638,105.468750
4639,105.468750
4640,109.375000
4641,109.375000
4642,113.281250
4643,117.187500
4644,117.187500
4645,117.187500
4646,121.093750
4647,121.093750
4648,125.000000
4649,125.000000
4650,128.906250
4651,128.906250
4652,132.812500
4653,132.812500
4654,132.812500
4655,136.718750
4656,136.718750
4657,140.625000
4658,136.718750
4659,140.625000
4660,140.625000
4661,144.531250
4662,144.531250
4663,144.531250
4664,148.437500
4665,148.437500
4666,148.437500
4667,148.437500
4668,152.343750
4669,152.343750
4670,152.343750
4671,152.343750
4672,152.343750
4673,156.250000
4674,156.250000
4675,156.250000
4676,156.250000
4677,156.250000
4678,156.250000
4679,160.156250
4680,160.156250
4681,160.156250
4682,160.156250
4683,160.156250
4684,160.156250
4685,160.156250
4686,160.156250
4687,160.156250
4688,160.156250
4689,160.156250
4690,164.062500
4691,164.062500
4692,160.156250
4693,160.156250
4694,160.156250
4695,164.062500
4696,164.062500
4697,164.062500
4698,160.156250
4699,160.156250
4700,160.156250
4701,160.156250
4702,160.156250
4703,160.156250
4704,160.156250
4705,160.156250
4706,160.156250
4707,160.156250
4708,160.156250
4709,160.156250
4710,156.250000
4711,156.250000
4712,156.250000
4713,156.250000
4714,156.250000
4715,156.250000
4716,152.343750
4717,152.343750
4718,152.343750
4719,152.343750
4720,152.343750
4721,148.437500
4722,148.437500
4723,148.437500
4724,148.437500
4725,144.531250
4726,144.531250
4727,140.625000
4728,140.625000
4729,140.625000
4730,140.625000
4731,140.625000
4732,136.718750
4733,136.718750
4734,132.812500
4735,132.812500
4736,128.906250
4737,128.906250
4738,125.000000
4739,125.000000
4740,125.000000
4741,121.093750
4742,121.093750
4743,117.187500
4744,117.187500
4745,113.281250
4746,113.281250
4747,109.375000
4748,109.375000
4749,105.468750
4750,105.468750
4751,101.562500
4752,97.656250
4753,97.656250
4754,93.750000
4755,93.750000
4756,89.843750
4757,85.937500
4758,85.937500
4759,82.031250
4760,78.125000
4761,78.125000
4762,74.218750
4763,70.312500
4764,70.312500
4765,66.406250
4766,62.500000
4767,62.500000
4768,58.593750
4769,54.687500
4770,50.781250
4771,50.781250
4772,46.875000
4773,42.968750
4774,39.062500
4775,35.156250
4776,31.250000
4777,31.250000
4778,27.343750
4779,23.437500
4780,19.531250
4781,15.625000
4782,11.718750
4783,7.812500
4784,3.906250
4785,3.906250
4786,0.000000
4787,-3.906250
4788,-7.812500
4789,-11.718750
4790,-15.625000
4791,-19.531250
4792,-23.437500
4793,-27.343750
4794,-31.250000
4795,-35.156250
4796,-39.062500
4797,-42.968750
4798,-46.875000
4799,-50.781250
4800,-54.687500
4801,-58.593750
4802,-62.500000
4803,-66.406250
4804,-70.312500
4805,-74.218750
4806,-74.218750
4807,-82.031250
4808,-85.937500
4809,-89.843750
4810,-93.750000
4811,-97.656250
4812,-101.562500
4813,-105.468750
4814,-109.375000
4815,-113.281250
4816,-117.187500
4817,-121.093750
4818,-125.000000
4819,-128.906250
4820,-132.812500
4821,-136.718750
4822,-140.625000
4823,-144.531250
4824,-148.437500
4825,-152.343750
4826,-152.343750
4827,-160.156250
4828,-164.062500
4829,-167.968750
4830,-167.968750
4831,-171.875000
4832,-179.687500
4833,-179.687500
4834,-183.593750
4835,-187.500000
4836,-191.406250
4837,-195.312500
4838,-199.218750
4839,-203.125000
4840,-207.031250
4841,-210.937500
4842,-210.937500
4843,-214.843750
4844,-218.750000
4845,-222.656250
4846,-226.562500
4847,-226.562500
4848,-230.468750
4849,-234.375000
4850,-238.281250
4851,-242.187500
4852,-242.187500
4853,-246.093750
4854,-250.000000
4855,-253.906250
4856,-253.906250
4857,-257.812500
4858,-261.718750
4859,-261.718750
4860,-265.625000
4861,-269.531250
4862,-269.531250
4863,-273.437500
4864,-277.343750
4865,-277.343750
4866,-281.250000
4867,-281.250000
4868,-285.156250
4869,-285.156250
4870,-289.062500
4871,-289.062500
4872,-292.968750
4873,-292.968750
4874,-296.875000
4875,-296.875000
4876,-300.781250
4877,-300.781250
4878,-304.687500
4879,-304.687500
4880,-304.687500
4881,-308.593750
4882,-308.593750
4883,-308.593750
4884,-312.500000
4885,-312.500000
4886,-312.500000
4887,-312.500000
4888,-316.406250
4889,-316.406250
4890,-316.406250
4891,-316.406250
4892,-316.406250
4893,-320.312500
4894,-320.312500
4895,-320.312500
4896,-320.312500
4897,-320.312500
4898,-320.312500
4899,-320.312500
4900,-324.218750
4901,-320.312500
4902,-320.312500
4903,-320.312500
4904,-320.312500
4905,-320.312500
4906,-320.312500
4907,-320.312500
4908,-320.312500
4909,-320.312500
4910,-320.312500
4911,-320.312500
4912,-320.312500
4913,-316.406250
4914,-316.406250
4915,-316.406250
4916,-316.406250
4917,-316.406250
4918,-312.500000
4919,-312.500000
4920,-312.500000
4921,-312.500000
4922,-308.593750
4923,-308.593750
4924,-308.593750
4925,-304.687500
4926,-304.687500
4927,-304.687500
4928,-300.781250
4929,-300.781250
4930,-300.781250
4931,-296.875000
4932,-296.875000
4933,-292.968750
4934,-292.968750
4935,-289.062500
4936,-289.062500
4937,-285.156250
4938,-281.250000
4939,-281.250000
4940,-281.250000
4941,-277.343750
4942,-273.437500
4943,-269.531250
4944,-269.531250
4945,-269.531250
4946,-265.625000
4947,-261.718750
4948,-257.812500
4949,-257.812500
4950,-253.906250
4951,-250.000000
4952,-246.093750
4953,-246.093750
4954,-242.187500
4955,-238.281250
4956,-234.375000
4957,-234.375000
4958,-230.468750
4959,-226.562500
4960,-222.656250
4961,-218.750000
4962,-214.843750
4963,-214.843750
4964,-210.937500
4965,-203.125000
4966,-203.125000
4967,-203.125000
4968,-195.312500
4969,-191.406250
4970,-187.500000
4971,-183.593750
4972,-179.687500
4973,-175.781250
4974,-175.781250
4975,-167.968750
4976,-164.062500
4977,-164.062500
4978,-160.156250
4979,-152.343750
4980,-152.343750
4981,-148.437500
4982,-144.531250
4983,-140.625000
4984,-136.718750
4985,-132.812500
4986,-128.906250
4987,-125.000000
4988,-121.093750
4989,-117.187500
4990,-113.281250
4991,-109.375000
4992,-105.468750
4993,-101.562500
4994,-97.656250
4995,-93.750000
4996,-89.843750
4997,-82.031250
4998,-82.031250
4999,-78.125000
5000,-70.312500
5001,-70.312500
5002,-66.406250
5003,-62.500000
5004,-58.593750
5005,-50.781250
5006,-50.781250
5007,-46.875000
5008,-42.968750
5009,-39.062500
5010,-35.156250
5011,-31.250000
5012,-27.343750
5013,-23.437500
5014,-19.531250
5015,-15.625000
5016,-11.718750
5017,-7.812500
5018,-3.906250
5019,0.000000
5020,3.906250
5021,7.812500
5022,11.718750
5023,15.625000
5024,15.625000
5025,19.531250
5026,23.437500
5027,27.343750
5028,31.250000
5029,35.156250
5030,35.156250
5031,39.062500
5032,42.968750
5033,46.875000
5034,50.781250
5035,50.781250
5036,54.687500
5037,58.593750
5038,62.500000
5039,62.500000
5040,66.406250
5041,70.312500
5042,70.312500
5043,74.218750
5044,78.125000
5045,82.031250
5046,82.031250
5047,85.937500
5048,89.843750
5049,89.843750
5050,93.750000
5051,93.750000
5052,97.656250
5053,101.562500
5054,101.562500
5055,105.468750
5056,105.468750
5057,109.375000
5058,109.375000
5059,113.281250
5060,113.281250
5061,117.187500
5062,121.093750
5063,121.093750
5064,121.093750
5065,125.000000
5066,125.000000
5067,128.906250
5068,128.906250
5069,128.906250
5070,132.812500
5071,132.812500
5072,136.718750
5073,136.718750
5074,136.718750
5075,140.625000
5076,140.625000
5077,140.625000
5078,144.531250
5079,144.531250
5080,144.531250
5081,148.437500
5082,148.437500
5083,148.437500
5084,148.437500
5085,148.437500
5086,152.343750
5087,152.343750
5088,156.250000
5089,152.343750
5090,156.250000
5091,156.250000
5092,156.250000
5093,156.250000
5094,156.250000
5095,156.250000
5096,160.156250
5097,160.156250
5098,160.156250
5099,160.156250
5100,160.156250
5101,160.156250
5102,160.156250
5103,160.156250
5104,160.156250
5105,164.062500
5106,164.062500
5107,164.062500
5108,164.062500
5109,164.062500
5110,164.062500
5111,164.062500
5112,164.062500
5113,164.062500
5114,164.062500
5115,160.156250
5116,160.156250
5117,160.156250
5118,160.156250
5119,160.156250
5120,160.156250
5121,160.156250
5122,160.156250
5123,160.156250
5124,160.156250
5125,160.156250
5126,156.250000
5127,156.250000
5128,156.250000
5129,156.250000
5130,156.250000
5131,156.250000
5132,156.250000
5133,152.343750
5134,152.343750
5135,152.343750
5136,152.343750
5137,148.437500
5138,148.437500
5139,148.437500
5140,148.437500
5141,148.437500
5142,144.531250
5143,144.531250
5144,144.531250
5145,140.625000
5146,140.625000
5147,140.625000
5148,136.718750
5149,136.718750
5150,136.718750
5151,132.812500
5152,132.812500
5153,132.812500
5154,128.906250
5155,125.000000
5156,125.000000
5157,125.000000
5158,121.093750
5159,121.093750
5160,117.187500
5161,117.187500
5162,113.281250
5163,113.281250
5164,109.375000
5165,109.375000
5166,105.468750
5167,105.468750
5168,101.562500
5169,97.656250
5170,97.656250
5171,93.750000
5172,93.750000
5173,89.843750
5174,89.843750
5175,85.937500
5176,82.031250
5177,82.031250
5178,78.125000
5179,74.218750
5180,70.312500
5181,70.312500
5182,66.406250
5183,62.500000
5184,58.593750
5185,58.593750
5186,54.687500
5187,50.781250
5188,46.875000
5189,46.875000
5190,42.968750
5191,39.062500
5192,35.156250
5193,31.250000
5194,31.250000
5195,23.437500
5196,23.437500
5197,19.531250
5198,15.625000
5199,11.718750
5200,7.812500
5201,3.906250
5202,0.000000
5203,-3.906250
5204,-7.812500
5205,-11.718750
5206,-11.718750
5207,-15.625000
5208,-19.531250
5209,-23.437500
5210,-27.343750
5211,-31.250000
5212,-35.156250
5213,-39.062500
5214,-42.968750
5215,-46.875000
5216,-50.781250
5217,-54.687500
5218,-58.593750
5219,-62.500000
5220,-66.406250
5221,-70.312500
5222,-74.218750
5223,-78.125000
5224,-82.031250
5225,-85.937500
5226,-89.843750
5227,-93.750000
5228,-97.656250
5229,-101.562500
5230,-105.468750
5231,-109.375000
5232,-113.281250
5233,-117.187500
5234,-121.093750
5235,-125.000000
5236,-128.906250
5237,-132.812500
5238,-136.718750
5239,-140.625000
5240,-144.531250
5241,-148.437500
5242,-152.343750
5243,-156.250000
5244,-160.156250
5245,-164.062500
5246,-167.968750
5247,-171.875000
5248,-175.781250
5249,-179.687500
5250,-183.593750
5251,-183.593750
5252,-187.500000
5253,-191.406250
5254,-195.312500
5255,-199.218750
5256,-203.125000
5257,-207.031250
5258,-207.031250
5259,-210.937500
5260,-214.843750
5261,-218.750000
5262,-222.656250
5263,-226.562500
5264,-230.468750
5265,-234.375000
5266,-234.375000
5267,-238.281250
5268,-242.187500
5269,-246.093750
5270,-250.000000
5271,-250.000000
5272,-253.906250
5273,-257.812500
5274,-257.812500
5275,-261.718750
5276,-261.718750
5277,-265.625000
5278,-269.531250
5279,-269.531250
5280,-273.437500
5281,-273.437500
5282,-277.343750
5283,-281.250000
5284,-281.250000
5285,-285.156250
5286,-285.156250
5287,-289.062500
5288,-289.062500
5289,-292.968750
5290,-292.968750
5291,-296.875000
5292,-296.875000
5293,-300.781250
5294,-300.781250
5295,-300.781250
5296,-304.687500
5297,-304.687500
5298,-304.687500
5299,-308.593750
5300,-308.593750
5301,-308.593750
5302,-312.500000
5303,-312.500000
5304,-316.406250
5305,-316.406250
5306,-316.406250
5307,-316.406250
5308,-316.406250
5309,-320.312500
5310,-320.312500
5311,-320.312500
5312,-320.312500
5313,-320.312500
5314,-320.312500
5315,-320.312500
5316,-320.312500
5317,-320.312500
5318,-320.312500
5319,-320.312500
5320,-320.312500
5321,-320.312500
5322,-320.312500
5323,-320.312500
5324,-320.312500
5325,-320.312500
5326,-320.312500
5327,-320.312500
5328,-320.312500
5329,-320.312500
5330,-320.312500
5331,-316.406250
5332,-316.406250
5333,-316.406250
5334,-316.406250
5335,-316.406250
5336,-312.500000
5337,-312.500000
5338,-312.500000
5339,-308.593750
5340,-308.593750
5341,-308.593750
5342,-304.687500
5343,-304.687500
5344,-304.687500
5345,-300.781250
5346,-300.781250
5347,-296.875000
5348,-296.875000
5349,-296.875000
5350,-292.968750
5351,-292.968750
5352,-289.062500
5353,-289.062500
5354,-285.156250
5355,-285.156250
5356,-281.250000
5357,-277.343750
5358,-277.343750
5359,-273.437500
5360,-273.437500
5361,-269.531250
5362,-265.625000
5363,-265.625000
5364,-261.718750
5365,-257.812500
5366,-253.906250
5367,-253.906250
5368,-250.000000
5369,-246.093750
5370,-246.093750
5371,-242.187500
5372,-238.281250
5373,-234.375000
5374,-234.375000
5375,-230.468750
5376,-226.562500
5377,-222.656250
5378,-218.750000
5379,-214.843750
5380,-210.937500
5381,-210.937500
5382,-207.031250
5383,-203.125000
5384,-199.218750
5385,-195.312500
5386,-191.406250
5387,-187.500000
5388,-183.593750
5389,-179.687500
5390,-175.781250
5391,-171.875000
5392,-171.875000
5393,-167.968750
5394,-160.156250
5395,-160.156250
5396,-156.250000
5397,-152.343750
5398,-148.437500
5399,-144.531250
5400,-140.625000
5401,-136.718750
5402,-132.812500
5403,-128.906250
5404,-125.000000
5405,-121.093750
5406,-117.187500
5407,-113.281250
5408,-109.375000
5409,-105.468750
5410,-97.656250
5411,-97.656250
5412,-93.750000
5413,-85.937500
5414,-82.031250
5415,-78.125000
5416,-78.125000
5417,-74.218750
5418,-70.312500
5419,-62.500000
5420,-58.593750
5421,-54.687500
5422,-54.687500
5423,-46.875000
5424,-42.968750
5425,-42.968750
5426,-39.062500
5427,-35.156250
5428,-31.250000
5429,-23.437500
5430,-23.437500
5431,-19.531250
5432,-15.625000
5433,-11.718750
5434,-7.812500
5435,-3.906250
5436,0.000000
5437,3.906250
5438,7.812500
5439,11.718750
5440,11.718750
5441,15.625000
5442,19.531250
5443,23.437500
5444,27.343750
5445,31.250000
5446,35.156250
5447,39.062500
5448,39.062500
5449,42.968750
5450,46.875000
5451,50.781250
5452,54.687500
5453,54.687500
5454,58.593750
5455,62.500000
5456,62.500000
5457,66.406250
5458,70.312500
5459,74.218750
5460,78.125000
5461,78.125000
5462,82.031250
5463,82.031250
5464,85.937500
5465,89.843750
5466,89.843750
5467,93.750000
5468,97.656250
5469,97.656250
5470,97.656250
5471,101.562500
5472,105.468750
5473,105.468750
5474,109.375000
5475,113.281250
5476,113.281250
5477,117.187500
5478,117.187500
5479,117.187500
5480,121.093750
5481,121.093750
5482,125.000000
5483,125.000000
5484,128.906250
5485,128.906250
5486,132.812500
5487,132.812500
5488,132.812500
5489,136.718750
5490,136.718750
5491,136.718750
5492,140.625000
5493,140.625000
5494,144.531250
5495,144.531250
5496,144.531250
5497,144.531250
5498,148.437500
5499,148.437500
5500,148.437500
5501,148.437500
5502,152.343750
5503,152.343750
5504,152.343750
5505,152.343750
5506,156.250000
5507,156.250000
5508,156.250000
5509,156.250000
5510,156.250000
5511,156.250000
5512,160.156250
5513,160.156250
5514,160.156250
5515,160.156250
5516,160.156250
5517,160.156250
5518,160.156250
5519,160.156250
5520,160.156250
5521,160.156250
5522,164.062500
5523,160.156250
5524,164.062500
5525,164.062500
5526,164.062500
5527,164.062500
5528,164.062500
5529,164.062500
5530,164.062500
5531,160.156250
5532,160.156250
5533,160.156250
5534,160.156250
5535,160.156250
5536,164.062500
5537,160.156250
5538,160.156250
5539,160.156250
5540,160.156250
5541,160.156250
5542,160.156250
5543,160.156250
5544,156.250000
5545,156.250000
5546,156.250000
5547,156.250000
5548,156.250000
5549,156.250000
5550,152.343750
5551,152.343750
5552,152.343750
5553,152.343750
5554,152.343750
5555,148.437500
5556,148.437500
5557,148.437500
5558,148.437500
5559,144.531250
5560,144.531250
5561,144.531250
5562,140.625000
5563,140.625000
5564,140.625000
5565,136.718750
5566,136.718750
5567,136.718750
5568,132.812500
5569,132.812500
5570,128.906250
5571,128.906250
5572,125.000000
5573,125.000000
5574,125.000000
5575,121.093750
5576,121.093750
5577,117.187500
5578,117.187500
5579,113.281250
5580,113.281250
5581,109.375000
5582,109.375000
5583,105.468750
5584,105.468750
5585,101.562500
5586,97.656250
5587,97.656250
5588,93.750000
5589,93.750000
5590,89.843750
5591,85.937500
5592,82.031250
5593,82.031250
5594,78.125000
5595,78.125000
5596,74.218750
5597,70.312500
5598,66.406250
5599,66.406250
5600,62.500000
5601,58.593750
5602,58.593750
5603,54.687500
5604,50.781250
5605,46.875000
5606,46.875000
5607,42.968750
5608,39.062500
5609,35.156250
5610,31.250000
5611,27.343750
5612,27.343750
5613,23.437500
5614,19.531250
5615,15.625000
5616,11.718750
5617,7.812500
5618,3.906250
5619,0.000000
5620,0.000000
5621,-3.906250
5622,-7.812500
5623,-11.718750
5624,-15.625000
5625,-19.531250
5626,-23.437500
5627,-27.343750
5628,-31.250000
5629,-35.156250
5630,-39.062500
5631,-42.968750
5632,-46.875000
5633,-50.781250
5634,-54.687500
5635,-58.593750
5636,-62.500000
5637,-66.406250
5638,-70.312500
5639,-74.218750
5640,-78.125000
5641,-82.031250
5642,-85.937500
5643,-89.843750
5644,-93.750000
5645,-97.656250
5646,-101.562500
5647,-105.468750
5648,-109.375000
5649,-113.281250
5650,-117.187500
5651,-121.093750
5652,-125.000000
5653,-128.906250
5654,-132.812500
5655,-136.718750
5656,-140.625000
5657,-144.531250
5658,-148.437500
5659,-152.343750
5660,-156.250000
5661,-160.156250
5662,-164.062500
5663,-167.968750
5664,-171.875000
5665,-175.781250
5666,-175.781250
5667,-183.593750
5668,-183.593750
5669,-187.500000
5670,-191.406250
5671,-195.312500
5672,-199.218750
5673,-203.125000
5674,-207.031250
5675,-210.937500
5676,-210.937500
5677,-214.843750
5678,-218.750000
5679,-222.656250
5680,-226.562500
5681,-230.468750
5682,-230.468750
5683,-234.375000
5684,-238.281250
5685,-242.187500
5686,-242.187500
5687,-246.093750
5688,-250.000000
5689,-253.906250
5690,-253.906250
5691,-257.812500
5692,-261.718750
5693,-261.718750
5694,-265.625000
5695,-269.531250
5696,-269.531250
5697,-273.437500
5698,-273.437500
5699,-277.343750
5700,-281.250000
5701,-281.250000
5702,-285.156250
5703,-285.156250
5704,-289.062500
5705,-289.062500
5706,-292.968750
5707,-292.968750
5708,-296.875000
5709,-296.875000
5710,-300.781250
5711,-300.781250
5712,-304.687500
5713,-304.687500
5714,-304.687500
5715,-308.593750
5716,-308.593750
5717,-308.593750
5718,-312.500000
5719,-312.500000
5720,-312.500000
5721,-312.500000
5722,-316.406250
5723,-316.406250
5724,-316.406250
5725,-316.406250
5726,-316.406250
5727,-320.312500
5728,-320.312500
5729,-320.312500
5730,-320.312500
5731,-320.312500
5732,-320.312500
5733,-320.312500
5734,-320.312500
5735,-320.312500
5736,-320.312500
5737,-320.312500
5738,-320.312500
5739,-320.312500
5740,-320.312500
5741,-320.312500
5742,-320.312500
5743,-320.312500
5744,-320.312500
5745,-320.312500
5746,-320.312500
5747,-316.406250
5748,-316.406250
5749,-316.406250
5750,-316.406250
5751,-316.406250
5752,-312.500000
5753,-312.500000
5754,-312.500000
5755,-312.500000
5756,-308.593750
5757,-308.593750
5758,-308.593750
5759,-304.687500
5760,-304.687500
5761,-300.781250
5762,-300.781250
5763,-300.781250
5764,-296.875000
5765,-296.875000
5766,-296.875000
5767,-292.968750
5768,-289.062500
5769,-289.062500
5770,-285.156250
5771,-285.156250
5772,-281.250000
5773,-281.250000
5774,-277.343750
5775,-277.343750
5776,-273.437500
5777,-269.531250
5778,-269.531250
5779,-265.625000
5780,-265.625000
5781,-261.718750
5782,-257.812500
5783,-257.812500
5784,-253.906250
5785,-250.000000
5786,-246.093750
5787,-242.187500
5788,-242.187500
5789,-238.281250
5790,-234.375000
5791,-230.468750
5792,-230.468750
5793,-226.562500
5794,-222.656250
5795,-218.750000
5796,-214.843750
5797,-210.937500
5798,-210.937500
5799,-207.031250
5800,-203.125000
5801,-199.218750
5802,-195.312500
5803,-191.406250
5804,-187.500000
5805,-183.593750
5806,-179.687500
5807,-175.781250
5808,-171.875000
5809,-167.968750
5810,-164.062500
5811,-160.156250
5812,-156.250000
5813,-152.343750
5814,-152.343750
5815,-144.531250
5816,-144.531250
5817,-140.625000
5818,-132.812500
5819,-128.906250
5820,-125.000000
5821,-121.093750
5822,-117.187500
5823,-113.281250
5824,-109.375000
5825,-109.375000
5826,-101.562500
5827,-97.656250
5828,-97.656250
5829,-89.843750
5830,-89.843750
5831,-82.031250
5832,-78.125000
5833,-74.218750
5834,-70.312500
5835,-66.406250
5836,-62.500000
5837,-58.593750
5838,-54.687500
5839,-50.781250
5840,-46.875000
5841,-42.968750
5842,-39.062500
5843,-35.156250
5844,-31.250000
5845,-27.343750
5846,-27.343750
5847,-23.437500
5848,-19.531250
5849,-15.625000
5850,-11.718750
5851,-7.812500
5852,-3.906250
5853,0.000000
5854,3.906250
5855,7.812500
5856,11.718750
5857,15.625000
5858,15.625000
5859,19.531250
5860,23.437500
5861,27.343750
5862,31.250000
5863,35.156250
5864,39.062500
5865,39.062500
5866,42.968750
5867,46.875000
5868,46.875000
5869,54.687500
5870,54.687500
5871,58.593750
5872,62.500000
5873,62.500000
5874,66.406250
5875,70.312500
5876,74.218750
5877,74.218750
5878,78.125000
5879,82.031250
5880,82.031250
5881,85.937500
5882,89.843750
5883,93.750000
5884,93.750000
5885,97.656250
5886,97.656250
5887,101.562500
5888,101.562500
5889,105.468750
5890,109.375000
5891,109.375000
5892,113.281250
5893,113.281250
5894,117.187500
5895,117.187500
5896,121.093750
5897,121.093750
5898,125.000000
5899,125.000000
5900,125.000000
5901,128.906250
5902,128.906250
5903,128.906250
5904,132.812500
5905,132.812500
5906,136.718750
5907,136.718750
5908,136.718750
5909,140.625000
5910,140.625000
5911,140.625000
5912,144.531250
5913,144.531250
5914,144.531250
5915,148.437500
5916,148.437500
5917,148.437500
5918,148.437500
5919,152.343750
5920,152.343750
5921,152.343750
5922,156.250000
5923,152.343750
5924,156.250000
5925,156.250000
5926,156.250000
5927,156.250000
5928,156.250000
5929,156.250000
5930,160.156250
5931,160.156250
5932,160.156250
5933,160.156250
5934,160.156250
5935,160.156250
5936,164.062500
5937,160.156250
5938,160.156250
5939,160.156250
5940,160.156250
5941,164.062500
5942,164.062500
5943,164.062500
5944,164.062500
5945,164.062500
5946,160.156250
5947,164.062500
5948,160.156250
5949,164.062500
5950,160.156250
5951,164.062500
5952,160.156250
5953,160.156250
5954,160.156250
5955,160.156250
5956,160.156250
5957,160.156250
5958,160.156250
5959,160.156250
5960,156.250000
5961,156.250000
5962,156.250000
5963,156.250000
5964,156.250000
5965,156.250000
5966,156.250000
5967,152.343750
5968,152.343750
5969,152.343750
5970,152.343750
5971,148.437500
5972,148.437500
5973,148.437500
5974,144.531250
5975,144.531250
5976,144.531250
5977,144.531250
5978,140.625000
5979,140.625000
5980,140.625000
5981,140.625000
5982,136.718750
5983,136.718750
5984,132.812500
5985,132.812500
5986,132.812500
5987,128.906250
5988,128.906250
5989,125.000000
5990,125.000000
5991,125.000000
5992,121.093750
5993,121.093750
5994,117.187500
5995,117.187500
5996,113.281250
5997,113.281250
5998,109.375000
5999,109.375000
6000,105.468750
6001,101.562500
6002,101.562500
6003,97.656250
6004,97.656250
6005,93.750000
6006,93.750000
6007,89.843750
6008,85.937500
6009,82.031250
6010,82.031250
6011,78.125000
6012,78.125000
6013,74.218750
6014,70.312500
6015,66.406250
6016,66.406250
6017,62.500000
6018,58.593750
6019,54.687500
6020,54.687500
6021,50.781250
6022,46.875000
6023,42.968750
6024,42.968750
6025,39.062500
6026,35.156250
6027,31.250000
6028,27.343750
6029,23.437500
6030,19.531250
6031,19.531250
6032,15.625000
6033,11.718750
6034,7.812500
6035,3.906250
6036,0.000000
6037,-3.906250
6038,-7.812500
6039,-11.718750
6040,-15.625000
6041,-15.625000
6042,-23.437500
6043,-23.437500
6044,-27.343750
6045,-31.250000
6046,-35.156250
6047,-39.062500
6048,-42.968750
6049,-46.875000
6050,-50.781250
6051,-54.687500
6052,-58.593750
6053,-62.500000
6054,-66.406250
6055,-70.312500
6056,-74.218750
6057,-78.125000
6058,-82.031250
6059,-85.937500
6060,-89.843750
6061,-93.750000
6062,-97.656250
6063,-101.562500
6064,-105.468750
6065,-109.375000
6066,-113.281250
6067,-117.187500
6068,-121.093750
6069,-125.000000
6070,-132.812500
6071,-132.812500
6072,-136.718750
6073,-140.625000
6074,-144.531250
6075,-148.437500
6076,-152.343750
6077,-156.250000
6078,-160.156250
6079,-164.062500
6080,-167.968750
6081,-171.875000
6082,-175.781250
6083,-179.687500
6084,-183.593750
6085,-187.500000
6086,-191.406250
6087,-191.406250
6088,-195.312500
6089,-199.218750
6090,-203.125000
6091,-207.031250
6092,-210.937500
6093,-214.843750
6094,-218.750000
6095,-218.750000
6096,-222.656250
6097,-226.562500
6098,-230.468750
6099,-234.375000
6100,-234.375000
6101,-238.281250
6102,-238.281250
6103,-246.093750
6104,-246.093750
6105,-250.000000
6106,-253.906250
6107,-253.906250
6108,-257.812500
6109,-261.718750
6110,-265.625000
6111,-265.625000
6112,-269.531250
6113,-273.437500
6114,-273.437500
6115,-277.343750
6116,-277.343750
6117,-277.343750
6118,-281.250000
6119,-289.062500
6120,-285.156250
6121,-289.062500
6122,-292.968750
6123,-292.968750
6124,-292.968750
6125,-296.875000
6126,-300.781250
6127,-300.781250
6128,-300.781250
6129,-300.781250
6130,-304.687500
6131,-304.687500
6132,-308.593750
6133,-308.593750
6134,-308.593750
6135,-308.593750
6136,-312.500000
6137,-312.500000
6138,-312.500000
6139,-316.406250
6140,-316.406250
6141,-316.406250
6142,-316.406250
6143,-316.406250
6144,-320.312500
6145,-320.312500
6146,-320.312500
6147,-320.312500
6148,-320.312500
6149,-320.312500
6150,-320.312500
6151,-320.312500
6152,-320.312500
6153,-320.312500
6154,-320.312500
6155,-320.312500
6156,-320.312500
6157,-320.312500
6158,-320.312500
6159,-320.312500
6160,-320.312500
6161,-320.312500
6162,-320.312500
6163,-320.312500
6164,-316.406250
6165,-316.406250
6166,-316.406250
6167,-312.500000
6168,-316.406250
6169,-312.500000
6170,-312.500000
6171,-312.500000
6172,-312.500000
6173,-308.593750
6174,-308.593750
6175,-308.593750
6176,-304.687500
6177,-304.687500
6178,-300.781250
6179,-300.781250
6180,-300.781250
6181,-296.875000
6182,-296.875000
6183,-292.968750
6184,-292.968750
6185,-292.968750
6186,-289.062500
6187,-285.156250
6188,-285.156250
6189,-281.250000
6190,-281.250000
6191,-277.343750
6192,-277.343750
6193,-273.437500
6194,-269.531250
6195,-269.531250
6196,-265.625000
6197,-261.718750
6198,-261.718750
6199,-257.812500
6200,-253.906250
6201,-250.000000
6202,-250.000000
6203,-246.093750
6204,-242.187500
6205,-242.187500
6206,-238.281250
6207,-234.375000
6208,-230.468750
6209,-226.562500
6210,-226.562500
6211,-222.656250
6212,-218.750000
6213,-214.843750
6214,-210.937500
6215,-207.031250
6216,-203.125000
6217,-203.125000
6218,-199.218750
6219,-195.312500
6220,-191.406250
6221,-187.500000
6222,-183.593750
6223,-179.687500
6224,-175.781250
6225,-171.875000
6226,-167.968750
6227,-164.062500
6228,-160.156250
6229,-156.250000
6230,-152.343750
6231,-148.437500
6232,-144.531250
6233,-140.625000
6234,-140.625000
6235,-132.812500
6236,-128.906250
6237,-125.000000
6238,-121.093750
6239,-117.187500
6240,-113.281250
6241,-109.375000
6242,-105.468750
6243,-101.562500
6244,-97.656250
6245,-93.750000
6246,-89.843750
6247,-85.937500
6248,-82.031250
6249,-78.125000
6250,-74.218750
6251,-70.312500
6252,-66.406250
6253,-62.500000
6254,-62.500000
6255,-54.687500
6256,-50.781250
6257,-46.875000
6258,-42.968750
6259,-39.062500
6260,-35.156250
6261,-31.250000
6262,-27.343750
6263,-23.437500
6264,-19.531250
6265,-15.625000
6266,-11.718750
6267,-7.812500
6268,-3.906250
6269,-3.906250
6270,0.000000
6271,3.906250
6272,7.812500
6273,11.718750
6274,15.625000
6275,19.531250
6276,23.437500
6277,23.437500
6278,27.343750
6279,31.250000
6280,35.156250
6281,39.062500
6282,42.968750
6283,46.875000
6284,46.875000
6285,50.781250
6286,54.687500
6287,58.593750
6288,58.593750
6289,62.500000
6290,66.406250
6291,70.312500
6292,70.312500
6293,74.218750
6294,78.125000
6295,78.125000
6296,82.031250
6297,85.937500
6298,85.937500
6299,89.843750
6300,89.843750
6301,93.750000
6302,97.656250
6303,97.656250
6304,101.562500
6305,101.562500
6306,105.468750
6307,109.375000
6308,109.375000
6309,109.375000
6310,113.281250
6311,117.187500
6312,117.187500
6313,117.187500
6314,121.093750
6315,125.000000
6316,125.000000
6317,125.000000
6318,128.906250
6319,128.906250
6320,132.812500
6321,132.812500
6322,132.812500
6323,136.718750
6324,136.718750
6325,140.625000
6326,140.625000
6327,140.625000
6328,140.625000
6329,144.531250
6330,144.531250
6331,148.437500
6332,148.437500
6333,148.437500
6334,148.437500
6335,148.437500
6336,152.343750
6337,152.343750
6338,152.343750
6339,152.343750
6340,156.250000
6341,156.250000
6342,156.250000
6343,156.250000
6344,156.250000
6345,156.250000
6346,156.250000
6347,160.156250
6348,160.156250
6349,160.156250
6350,160.156250
6351,160.156250
6352,160.156250
6353,160.156250
6354,160.156250
6355,160.156250
6356,160.156250
6357,160.156250
6358,160.156250
6359,160.156250
6360,164.062500
6361,160.156250
6362,164.062500
6363,160.156250
6364,160.156250
6365,160.156250
6366,160.156250
6367,160.156250
6368,160.156250
6369,160.156250
6370,160.156250
6371,160.156250
6372,160.156250
6373,160.156250
6374,160.156250
6375,160.156250
6376,156.250000
6377,156.250000
6378,156.250000
6379,156.250000
6380,156.250000
6381,156.250000
6382,156.250000
6383,152.343750
6384,152.343750
6385,152.343750
6386,152.343750
6387,148.437500
6388,148.437500
6389,148.437500
6390,148.437500
6391,148.437500
6392,144.531250
6393,144.531250
6394,144.531250
6395,140.625000
6396,140.625000
6397,140.625000
6398,136.718750
6399,136.718750
6400,136.718750
6401,132.812500
6402,132.812500
6403,132.812500
6404,128.906250
6405,128.906250
6406,125.000000
6407,125.000000
6408,121.093750
6409,121.093750
6410,121.093750
6411,117.187500
6412,113.281250
6413,113.281250
6414,109.375000
6415,109.375000
6416,105.468750
6417,105.468750
6418,101.562500
6419,101.562500
6420,97.656250
6421,97.656250
6422,93.750000
6423,89.843750
6424,89.843750
6425,85.937500
6426,82.031250
6427,82.031250
6428,78.125000
6429,74.218750
6430,74.218750
6431,70.312500
6432,66.406250
6433,62.500000
6434,62.500000
6435,58.593750
6436,54.687500
6437,50.781250
6438,50.781250
6439,46.875000
6440,42.968750
6441,39.062500
6442,35.156250
6443,35.156250
6444,31.250000
6445,27.343750
6446,23.437500
6447,19.531250
6448,15.625000
6449,11.718750
6450,11.718750
6451,7.812500
6452,3.906250
6453,0.000000
6454,-3.906250
6455,-7.812500
6456,-11.718750
6457,-15.625000
6458,-19.531250
6459,-23.437500
6460,-27.343750
6461,-31.250000
6462,-31.250000
6463,-35.156250
6464,-39.062500
6465,-42.968750
6466,-46.875000
6467,-50.781250
6468,-54.687500
6469,-58.593750
6470,-66.406250
6471,-66.406250
6472,-70.312500
6473,-74.218750
6474,-78.125000
6475,-85.937500
6476,-85.937500
6477,-89.843750
6478,-97.656250
6479,-97.656250
6480,-105.468750
6481,-105.468750
6482,-109.375000
6483,-113.281250
6484,-121.093750
6485,-121.093750
6486,-125.000000
6487,-132.812500
6488,-132.812500
6489,-136.718750
6490,-140.625000
6491,-144.531250
6492,-148.437500
6493,-152.343750
6494,-156.250000
6495,-160.156250
6496,-164.062500
6497,-167.968750
6498,-171.875000
6499,-175.781250
6500,-179.687500
6501,-183.593750
6502,-187.500000
6503,-191.406250
6504,-195.312500
6505,-199.218750
6506,-199.218750
6507,-203.125000
6508,-207.031250
6509,-210.937500
6510,-214.843750
6511,-218.750000
6512,-222.656250
6513,-222.656250
6514,-226.562500
6515,-230.468750
6516,-234.375000
6517,-238.281250
6518,-238.281250
6519,-242.187500
6520,-246.093750
6521,-246.093750
6522,-250.000000
6523,-253.906250
6524,-253.906250
6525,-257.812500
6526,-261.718750
6527,-265.625000
6528,-265.625000
6529,-269.531250
6530,-269.531250
6531,-273.437500
6532,-277.343750
6533,-277.343750
6534,-281.250000
6535,-281.250000
6536,-285.156250
6537,-289.062500
6538,-289.062500
6539,-292.968750
6540,-292.968750
6541,-292.968750
6542,-296.875000
6543,-296.875000
6544,-300.781250
6545,-300.781250
6546,-304.687500
6547,-304.687500
6548,-304.687500
6549,-308.593750
6550,-308.593750
6551,-308.593750
6552,-312.500000
6553,-312.500000
6554,-312.500000
6555,-316.406250
6556,-316.406250
6557,-316.406250
6558,-316.406250
6559,-316.406250
6560,-320.312500
6561,-320.312500
6562,-320.312500
6563,-320.312500
6564,-320.312500
6565,-320.312500
6566,-324.218750
6567,-320.312500
6568,-320.312500
6569,-320.312500
6570,-320.312500
6571,-320.312500
6572,-320.312500
6573,-320.312500
6574,-320.312500
6575,-320.312500
6576,-320.312500
6577,-320.312500
6578,-320.312500
6579,-320.312500
6580,-316.406250
6581,-316.406250
6582,-316.406250
6583,-316.406250
6584,-316.406250
6585,-312.500000
6586,-312.500000
6587,-312.500000
6588,-312.500000
6589,-308.593750
6590,-308.593750
6591,-308.593750
6592,-304.687500
6593,-304.687500
6594,-304.687500
6595,-300.781250
6596,-300.781250
6597,-296.875000
6598,-296.875000
6599,-296.875000
6600,-292.968750
6601,-292.968750
6602,-289.062500
6603,-289.062500
6604,-285.156250
6605,-285.156250
6606,-281.250000
6607,-277.343750
6608,-277.343750
6609,-273.437500
6610,-273.437500
6611,-269.531250
6612,-269.531250
6613,-265.625000
6614,-261.718750
6615,-261.718750
6616,-257.812500
6617,-253.906250
6618,-250.000000
6619,-250.000000
6620,-246.093750
6621,-242.187500
6622,-238.281250
6623,-238.281250
6624,-234.375000
6625,-230.468750
6626,-226.562500
6627,-222.656250
6628,-222.656250
6629,-218.750000
6630,-214.843750
6631,-210.937500
6632,-207.031250
6633,-203.125000
6634,-199.218750
6635,-195.312500
6636,-191.406250
6637,-191.406250
6638,-187.500000
6639,-183.593750
6640,-179.687500
6641,-175.781250
6642,-171.875000
6643,-167.968750
6644,-164.062500
6645,-160.156250
6646,-156.250000
6647,-152.343750
6648,-148.437500
6649,-144.531250
6650,-140.625000
6651,-136.718750
6652,-132.812500
6653,-128.906250
6654,-125.000000
6655,-121.093750
6656,-117.187500
6657,-113.281250
6658,-109.375000
6659,-105.468750
6660,-101.562500
6661,-97.656250
6662,-93.750000
6663,-89.843750
6664,-85.937500
6665,-82.031250
6666,-78.125000
6667,-74.218750
6668,-70.312500
6669,-66.406250
6670,-62.500000
6671,-58.593750
6672,-54.687500
6673,-50.781250
6674,-46.875000
6675,-42.968750
6676,-39.062500
6677,-35.156250
6678,-31.250000
6679,-27.343750
6680,-23.437500
6681,-19.531250
6682,-15.625000
6683,-11.718750
6684,-7.812500
6685,-3.906250
6686,0.000000
6687,0.000000
6688,3.906250
6689,7.812500
6690,11.718750
6691,15.625000
6692,19.531250
6693,23.437500
6694,27.343750
6695,27.343750
6696,31.250000
6697,35.156250
6698,39.062500
6699,42.968750
6700,46.875000
6701,46.875000
6702,50.781250
6703,54.687500
6704,58.593750
6705,58.593750
6706,62.500000
6707,66.406250
6708,70.312500
6709,70.312500
6710,74.218750
6711,78.125000
6712,78.125000
6713,82.031250
6714,85.937500
6715,85.937500
6716,89.843750
6717,93.750000
6718,93.750000
6719,97.656250
6720,97.656250
6721,101.562500
6722,105.468750
6723,105.468750
6724,109.375000
6725,109.375000
6726,113.281250
6727,113.281250
6728,117.187500
6729,117.187500
6730,121.093750
6731,121.093750
6732,125.000000
6733,125.000000
6734,128.906250
6735,128.906250
6736,128.906250
6737,132.812500
6738,132.812500
6739,132.812500
6740,136.718750
6741,136.718750
6742,140.625000
6743,140.625000
6744,140.625000
6745,144.531250
6746,144.531250
6747,144.531250
6748,148.437500
6749,148.437500
6750,148.437500
6751,148.437500
6752,152.343750
6753,152.343750
6754,152.343750
6755,152.343750
6756,152.343750
6757,156.250000
6758,156.250000
6759,156.250000
6760,156.250000
6761,156.250000
6762,156.250000
6763,160.156250
6764,160.156250
6765,160.156250
6766,160.156250
6767,160.156250
6768,160.156250
6769,160.156250
6770,160.156250
6771,160.156250
6772,160.156250
6773,160.156250
6774,164.062500
6775,164.062500
6776,164.062500
6777,164.062500
6778,160.156250
6779,164.062500
6780,164.062500
6781,164.062500
6782,160.156250
6783,160.156250
6784,160.156250
6785,160.156250
6786,160.156250
6787,160.156250
6788,160.156250
6789,160.156250
6790,160.156250
6791,160.156250
6792,160.156250
6793,160.156250
6794,156.250000
6795,156.250000
6796,156.250000
6797,156.250000
6798,156.250000
6799,156.250000
6800,152.343750
6801,152.343750
6802,152.343750
6803,152.343750
6804,148.437500
6805,148.437500
6806,148.437500
6807,148.437500
6808,144.531250
6809,144.531250
6810,144.531250
6811,144.531250
6812,140.625000
6813,140.625000
6814,140.625000
6815,136.718750
6816,136.718750
6817,132.812500
6818,132.812500
6819,132.812500
6820,128.906250
6821,128.906250
6822,128.906250
6823,125.000000
6824,125.000000
6825,121.093750
6826,121.093750
6827,117.187500
6828,117.187500
6829,113.281250
6830,113.281250
6831,109.375000
6832,109.375000
6833,105.468750
6834,105.468750
6835,101.562500
6836,101.562500
6837,97.656250
6838,93.750000
6839,93.750000
6840,89.843750
6841,89.843750
6842,85.937500
6843,82.031250
6844,78.125000
6845,78.125000
6846,74.218750
6847,74.218750
6848,70.312500
6849,66.406250
6850,62.500000
6851,62.500000
6852,58.593750
6853,54.687500
6854,54.687500
6855,50.781250
6856,46.875000
6857,42.968750
6858,39.062500
6859,35.156250
6860,35.156250
6861,31.250000
6862,27.343750
6863,23.437500
6864,19.531250
6865,15.625000
6866,11.718750
6867,7.812500
6868,7.812500
6869,3.906250
6870,0.000000
6871,-3.906250
6872,-7.812500
6873,-11.718750
6874,-15.625000
6875,-19.531250
6876,-23.437500
6877,-27.343750
6878,-31.250000
6879,-35.156250
6880,-39.062500
6881,-39.062500
6882,-46.875000
6883,-50.781250
6884,-54.687500
6885,-58.593750
6886,-62.500000
6887,-66.406250
6888,-70.312500
6889,-74.218750
6890,-78.125000
6891,-82.031250
6892,-85.937500
6893,-85.937500
6894,-93.750000
6895,-97.656250
6896,-101.562500
6897,-105.468750
6898,-109.375000
6899,-109.375000
6900,-117.187500
6901,-121.093750
6902,-125.000000
6903,-128.906250
6904,-132.812500
6905,-136.718750
6906,-140.625000
6907,-144.531250
6908,-144.531250
6909,-152.343750
6910,-156.250000
6911,-156.250000
6912,-160.156250
6913,-164.062500
6914,-167.968750
6915,-171.875000
6916,-175.781250
6917,-179.687500
6918,-183.593750
6919,-187.500000
6920,-191.406250
6921,-195.312500
6922,-199.218750
6923,-199.218750
6924,-203.125000
6925,-207.031250
6926,-210.937500
6927,-214.843750
6928,-218.750000
6929,-222.656250
6930,-226.562500
6931,-226.562500
6932,-230.468750
6933,-234.375000
6934,-238.281250
6935,-238.281250
6936,-242.187500
6937,-246.093750
6938,-250.000000
6939,-253.906250
6940,-253.906250
6941,-257.812500
6942,-257.812500
6943,-261.718750
6944,-265.625000
6945,-269.531250
6946,-269.531250
6947,-273.437500
6948,-273.437500
6949,-277.343750
6950,-281.250000
6951,-281.250000
6952,-285.156250
6953,-285.156250
6954,-289.062500
6955,-289.062500
6956,-292.968750
6957,-292.968750
6958,-296.875000
6959,-296.875000
6960,-300.781250
6961,-300.781250
6962,-304.687500
6963,-304.687500
6964,-304.687500
6965,-308.593750
6966,-308.593750
6967,-308.593750
6968,-312.500000
6969,-312.500000
6970,-312.500000
6971,-312.500000
6972,-316.406250
6973,-316.406250
6974,-316.406250
6975,-316.406250
6976,-316.406250
6977,-316.406250
6978,-320.312500
6979,-320.312500
6980,-320.312500
6981,-320.312500
6982,-320.312500
6983,-320.312500
6984,-320.312500
6985,-320.312500
6986,-320.312500
6987,-320.312500
6988,-320.312500
6989,-320.312500
6990,-324.218750
6991,-320.312500
6992,-320.312500
6993,-320.312500
6994,-320.312500
6995,-320.312500
6996,-320.312500
6997,-316.406250
6998,-316.406250
6999,-316.406250
7000,-316.406250
7001,-316.406250
7002,-312.500000
7003,-312.500000
7004,-312.500000
7005,-312.500000
7006,-312.500000
7007,-308.593750
7008,-308.593750
7009,-304.687500
7010,-304.687500
7011,-304.687500
7012,-300.781250
7013,-300.781250
7014,-296.875000
7015,-296.875000
7016,-296.875000
7017,-292.968750
7018,-292.968750
7019,-289.062500
7020,-289.062500
7021,-285.156250
7022,-285.156250
7023,-281.250000
7024,-277.343750
7025,-277.343750
7026,-273.437500
7027,-273.437500
7028,-269.531250
7029,-265.625000
7030,-265.625000
7031,-261.718750
7032,-257.812500
7033,-257.812500
7034,-253.906250
7035,-250.000000
7036,-250.000000
7037,-246.093750
7038,-242.187500
7039,-238.281250
7040,-238.281250
7041,-234.375000
7042,-230.468750
7043,-226.562500
7044,-222.656250
7045,-218.750000
7046,-214.843750
7047,-214.843750
7048,-210.937500
7049,-207.031250
7050,-203.125000
7051,-199.218750
7052,-195.312500
7053,-195.312500
7054,-191.406250
7055,-187.500000
7056,-183.593750
7057,-179.687500
7058,-175.781250
7059,-171.875000
7060,-167.968750
7061,-164.062500
7062,-160.156250
7063,-156.250000
7064,-152.343750
7065,-148.437500
7066,-144.531250
7067,-140.625000
7068,-136.718750
7069,-132.812500
7070,-128.906250
7071,-125.000000
7072,-121.093750
7073,-117.187500
7074,-113.281250
7075,-109.375000
7076,-105.468750
7077,-101.562500
7078,-97.656250
7079,-93.750000
7080,-89.843750
7081,-85.937500
7082,-82.031250
7083,-78.125000
7084,-74.218750
7085,-70.312500
7086,-66.406250
7087,-62.500000
7088,-58.593750
7089,-54.687500
7090,-50.781250
7091,-46.875000
7092,-42.968750
7093,-39.062500
7094,-35.156250
7095,-31.250000
7096,-27.343750
7097,-23.437500
7098,-19.531250
7099,-15.625000
7100,-11.718750
7101,-7.812500
7102,-3.906250
7103,0.000000
7104,3.906250
7105,3.906250
7106,11.718750
7107,11.718750
7108,15.625000
7109,19.531250
7110,23.437500
7111,27.343750
7112,31.250000
7113,35.156250
7114,35.156250
7115,39.062500
7116,42.968750
7117,46.875000
7118,50.781250
7119,50.781250
7120,54.687500
7121,58.593750
7122,62.500000
7123,62.500000
7124,66.406250
7125,70.312500
7126,70.312500
7127,74.218750
7128,78.125000
7129,82.031250
7130,82.031250
7131,85.937500
7132,89.843750
7133,89.843750
7134,93.750000
7135,93.750000
7136,97.656250
7137,97.656250
7138,101.562500
7139,105.468750
7140,105.468750
7141,109.375000
7142,109.375000
7143,113.281250
7144,113.281250
7145,117.187500
7146,117.187500
7147,121.093750
7148,121.093750
7149,125.000000
7150,125.000000
7151,128.906250
7152,128.906250
7153,128.906250
7154,132.812500
7155,132.812500
7156,132.812500
7157,136.718750
7158,136.718750
7159,140.625000
7160,140.625000
7161,140.625000
7162,144.531250
7163,144.531250
7164,144.531250
7165,148.437500
7166,148.437500
7167,148.437500
7168,148.437500
7169,152.343750
7170,152.343750
7171,152.343750
7172,152.343750
7173,156.250000
7174,156.250000
7175,156.250000
7176,156.250000
7177,156.250000
7178,156.250000
7179,160.156250
7180,160.156250
7181,160.156250
7182,160.156250
7183,160.156250
7184,160.156250
7185,160.156250
7186,164.062500
7187,164.062500
7188,160.156250
7189,160.156250
7190,160.156250
7191,164.062500
7192,164.062500
7193,164.062500
7194,164.062500
7195,164.062500
7196,164.062500
7197,164.062500
7198,160.156250
7199,164.062500
7200,164.062500
7201,164.062500
7202,160.156250
7203,160.156250
7204,160.156250
7205,160.156250
7206,160.156250
7207,160.156250
7208,160.156250
7209,160.156250
7210,160.156250
7211,160.156250
7212,156.250000
7213,156.250000
7214,156.250000
7215,156.250000
7216,156.250000
7217,156.250000
7218,152.343750
7219,152.343750
7220,152.343750
7221,148.437500
7222,148.437500
7223,148.437500
7224,148.437500
7225,148.437500
7226,144.531250
7227,144.531250
7228,144.531250
7229,140.625000
7230,140.625000
7231,140.625000
7232,136.718750
7233,136.718750
7234,136.718750
7235,132.812500
7236,132.812500
7237,128.906250
7238,128.906250
7239,128.906250
7240,125.000000
7241,125.000000
7242,121.093750
7243,121.093750
7244,117.187500
7245,117.187500
7246,117.187500
7247,113.281250
7248,109.375000
7249,109.375000
7250,105.468750
7251,105.468750
7252,101.562500
7253,101.562500
7254,97.656250
7255,93.750000
7256,93.750000
7257,89.843750
7258,89.843750
7259,85.937500
7260,82.031250
7261,78.125000
7262,78.125000
7263,74.218750
7264,70.312500
7265,70.312500
7266,66.406250
7267,62.500000
7268,62.500000
7269,58.593750
7270,54.687500
7271,50.781250
7272,46.875000
7273,46.875000
7274,42.968750
7275,39.062500
7276,35.156250
7277,31.250000
7278,27.343750
7279,27.343750
7280,23.437500
7281,19.531250
7282,15.625000
7283,11.718750
7284,7.812500
7285,3.906250
7286,3.906250
7287,0.000000
7288,-3.906250
7289,-7.812500
7290,-11.718750
7291,-15.625000
7292,-19.531250
7293,-23.437500
7294,-27.343750
7295,-31.250000
7296,-35.156250
7297,-39.062500
7298,-42.968750
7299,-46.875000
7300,-50.781250
7301,-54.687500
7302,-58.593750
7303,-62.500000
7304,-66.406250
7305,-70.312500
7306,-74.218750
7307,-78.125000
7308,-82.031250
7309,-85.937500
7310,-89.843750
7311,-93.750000
7312,-97.656250
7313,-101.562500
7314,-105.468750
7315,-109.375000
7316,-113.281250
7317,-117.187500
7318,-121.093750
7319,-125.000000
7320,-128.906250
7321,-132.812500
7322,-136.718750
7323,-140.625000
7324,-144.531250
7325,-148.437500
7326,-152.343750
7327,-156.250000
7328,-160.156250
7329,-164.062500
7330,-167.968750
7331,-171.875000
7332,-175.781250
7333,-179.687500
7334,-183.593750
7335,-183.593750
7336,-187.500000
7337,-191.406250
7338,-195.312500
7339,-199.218750
7340,-203.125000
7341,-207.031250
7342,-210.937500
7343,-210.937500
7344,-214.843750
7345,-218.750000
7346,-222.656250
7347,-226.562500
7348,-230.468750
7349,-230.468750
7350,-234.375000
7351,-238.281250
7352,-242.187500
7353,-242.187500
7354,-246.093750
7355,-250.000000
7356,-253.906250
7357,-253.906250
7358,-257.812500
7359,-261.718750
7360,-261.718750
7361,-265.625000
7362,-269.531250
7363,-269.531250
7364,-273.437500
7365,-273.437500
7366,-277.343750
7367,-281.250000
7368,-281.250000
7369,-285.156250
7370,-285.156250
7371,-289.062500
7372,-289.062500
7373,-292.968750
7374,-292.968750
7375,-296.875000
7376,-296.875000
7377,-300.781250
7378,-300.781250
7379,-300.781250
7380,-304.687500
7381,-304.687500
7382,-308.593750
7383,-308.593750
7384,-308.593750
7385,-308.593750
7386,-312.500000
7387,-312.500000
7388,-312.500000
7389,-316.406250
7390,-316.406250
7391,-316.406250
7392,-316.406250
7393,-316.406250
7394,-320.312500
7395,-320.312500
7396,-320.312500
7397,-320.312500
7398,-320.312500
7399,-320.312500
7400,-320.312500
7401,-320.312500
7402,-320.312500
7403,-320.312500
7404,-324.218750
7405,-320.312500
7406,-320.312500
7407,-320.312500
7408,-320.312500
7409,-320.312500
7410,-320.312500
7411,-320.312500
7412,-320.312500
7413,-320.312500
7414,-320.312500
7415,-316.406250
7416,-316.406250
7417,-316.406250
7418,-316.406250
7419,-316.406250
7420,-312.500000
7421,-312.500000
7422,-312.500000
7423,-308.593750
7424,-308.593750
7425,-308.593750
7426,-304.687500
7427,-304.687500
7428,-304.687500
7429,-300.781250
7430,-300.781250
7431,-296.875000
7432,-296.875000
7433,-292.968750
7434,-292.968750
7435,-292.968750
7436,-289.062500
7437,-289.062500
7438,-285.156250
7439,-281.250000
7440,-281.250000
7441,-277.343750
7442,-277.343750
7443,-273.437500
7444,-273.437500
7445,-269.531250
7446,-265.625000
7447,-265.625000
7448,-261.718750
7449,-257.812500
7450,-257.812500
7451,-253.906250
7452,-250.000000
7453,-246.093750
7454,-246.093750
7455,-242.187500
7456,-238.281250
7457,-238.281250
7458,-234.375000
7459,-230.468750
7460,-226.562500
7461,-222.656250
7462,-222.656250
7463,-218.750000
7464,-214.843750
7465,-210.937500
7466,-207.031250
7467,-203.125000
7468,-199.218750
7469,-195.312500
7470,-191.406250
7471,-187.500000
7472,-187.500000
7473,-183.593750
7474,-179.687500
7475,-175.781250
7476,-171.875000
7477,-167.968750
7478,-164.062500
7479,-160.156250
7480,-156.250000
7481,-152.343750
7482,-148.437500
7483,-144.531250
7484,-140.625000
7485,-136.718750
7486,-132.812500
7487,-128.906250
7488,-125.000000
7489,-121.093750
7490,-117.187500
7491,-113.281250
7492,-109.375000
7493,-105.468750
7494,-101.562500
7495,-97.656250
7496,-93.750000
7497,-89.843750
7498,-85.937500
7499,-82.031250
7500,-78.125000
7501,-74.218750
7502,-70.312500
7503,-66.406250
7504,-62.500000
7505,-58.593750
7506,-54.687500
7507,-50.781250
7508,-46.875000
7509,-42.968750
7510,-39.062500
7511,-35.156250
7512,-31.250000
7513,-27.343750
7514,-23.437500
7515,-19.531250
7516,-15.625000
7517,-11.718750
7518,-7.812500
7519,-3.906250
7520,0.000000
7521,3.906250
7522,7.812500
7523,7.812500
7524,11.718750
7525,15.625000
7526,19.531250
7527,23.437500
7528,27.343750
7529,31.250000
7530,31.250000
7531,35.156250
7532,39.062500
7533,42.968750
7534,46.875000
7535,50.781250
7536,50.781250
7537,54.687500
7538,58.593750
7539,62.500000
7540,62.500000
7541,66.406250
7542,70.312500
7543,70.312500
7544,74.218750
7545,78.125000
7546,82.031250
7547,82.031250
7548,85.937500
7549,89.843750
7550,89.843750
7551,93.750000
7552,97.656250
7553,97.656250
7554,101.562500
7555,101.562500
7556,105.468750
7557,105.468750
7558,109.375000
7559,109.375000
7560,113.281250
7561,113.281250
7562,117.187500
7563,121.093750
7564,121.093750
7565,121.093750
7566,125.000000
7567,125.000000
7568,128.906250
7569,128.906250
7570,128.906250
7571,132.812500
7572,132.812500
7573,136.718750
7574,136.718750
7575,140.625000
7576,140.625000
7577,140.625000
7578,144.531250
7579,144.531250
7580,144.531250
7581,144.531250
7582,148.437500
7583,148.437500
7584,148.437500
7585,148.437500
7586,152.343750
7587,152.343750
7588,152.343750
7589,152.343750
7590,156.250000
7591,156.250000
7592,156.250000
7593,156.250000
7594,156.250000
7595,156.250000
7596,160.156250
7597,160.156250
7598,160.156250
7599,160.156250
7600,160.156250
7601,160.156250
7602,160.156250
7603,160.156250
7604,164.062500
7605,160.156250
7606,164.062500
7607,160.156250
7608,164.062500
7609,164.062500
7610,164.062500
7611,164.062500
7612,164.062500
7613,164.062500
7614,164.062500
7615,164.062500
7616,164.062500
7617,164.062500
7618,164.062500
7619,160.156250
7620,160.156250
7621,160.156250
7622,160.156250
7623,160.156250
7624,160.156250
7625,160.156250
7626,160.156250
7627,160.156250
7628,160.156250
7629,156.250000
7630,156.250000
7631,156.250000
7632,156.250000
7633,156.250000
7634,156.250000
7635,152.343750
7636,152.343750
7637,152.343750
7638,152.343750
7639,148.437500
7640,148.437500
7641,148.437500
7642,148.437500
7643,144.531250
7644,144.531250
7645,144.531250
7646,144.531250
7647,140.625000
7648,136.718750
7649,136.718750
7650,136.718750
7651,136.718750
7652,132.812500
7653,132.812500
7654,128.906250
7655,128.906250
7656,128.906250
7657,125.000000
7658,125.000000
7659,121.093750
7660,121.093750
7661,117.187500
7662,117.187500
7663,113.281250
7664,113.281250
7665,109.375000
7666,109.375000
7667,105.468750
7668,105.468750
7669,101.562500
7670,97.656250
7671,97.656250
7672,93.750000
7673,93.750000
7674,89.843750
7675,85.937500
7676,85.937500
7677,82.031250
7678,78.125000
7679,78.125000
7680,74.218750
7681,74.218750
7682,70.312500
7683,66.406250
7684,62.500000
7685,62.500000
7686,58.593750
7687,54.687500
7688,50.781250
7689,50.781250
7690,42.968750
7691,42.968750
7692,39.062500
7693,35.156250
7694,31.250000
7695,31.250000
7696,27.343750
7697,23.437500
7698,19.531250
7699,15.625000
7700,11.718750
7701,7.812500
7702,3.906250
7703,0.000000
7704,0.000000
7705,-3.906250
7706,-7.812500
7707,-11.718750
7708,-15.625000
7709,-19.531250
7710,-23.437500
7711,-27.343750
7712,-31.250000
7713,-35.156250
7714,-39.062500
7715,-42.968750
7716,-46.875000
7717,-50.781250
7718,-54.687500
7719,-58.593750
7720,-62.500000
7721,-66.406250
7722,-70.312500
7723,-74.218750
7724,-78.125000
7725,-82.031250
7726,-85.937500
7727,-89.843750
7728,-93.750000
7729,-97.656250
7730,-101.562500
7731,-105.468750
7732,-109.375000
7733,-113.281250
7734,-117.187500
7735,-121.093750
7736,-125.000000
7737,-128.906250
7738,-132.812500
7739,-136.718750
7740,-140.625000
7741,-144.531250
7742,-148.437500
7743,-152.343750
7744,-156.250000
7745,-160.156250
7746,-164.062500
7747,-167.968750
7748,-171.875000
7749,-175.781250
7750,-179.687500
7751,-179.687500
7752,-183.593750
7753,-187.500000
7754,-191.406250
7755,-195.312500
7756,-199.218750
7757,-203.125000
7758,-207.031250
7759,-210.937500
7760,-210.937500
7761,-214.843750
7762,-218.750000
7763,-222.656250
7764,-226.562500
7765,-230.468750
7766,-234.375000
7767,-234.375000
7768,-238.281250
7769,-242.187500
7770,-242.187500
7771,-246.093750
7772,-250.000000
7773,-253.906250
7774,-257.812500
7775,-257.812500
7776,-261.718750
7777,-261.718750
7778,-265.625000
7779,-269.531250
7780,-269.531250
7781,-273.437500
7782,-277.343750
7783,-277.343750
7784,-281.250000
7785,-281.250000
7786,-285.156250
7787,-285.156250
7788,-289.062500
7789,-292.968750
7790,-292.968750
7791,-296.875000
7792,-296.875000
7793,-296.875000
7794,-300.781250
7795,-300.781250
7796,-304.687500
7797,-304.687500
7798,-308.593750
7799,-308.593750
7800,-308.593750
7801,-312.500000
7802,-312.500000
7803,-312.500000
7804,-312.500000
7805,-312.500000
7806,-316.406250
7807,-316.406250
7808,-316.406250
7809,-316.406250
7810,-320.312500
7811,-320.312500
7812,-320.312500
7813,-320.312500
7814,-320.312500
7815,-320.312500
7816,-320.312500
7817,-320.312500
7818,-320.312500
7819,-320.312500
7820,-320.312500
7821,-324.218750
7822,-320.312500
7823,-320.312500
7824,-320.312500
7825,-320.312500
7826,-324.218750
7827,-320.312500
7828,-320.312500
7829,-320.312500
7830,-320.312500
7831,-320.312500
7832,-320.312500
7833,-316.406250
7834,-316.406250
7835,-316.406250
7836,-312.500000
7837,-312.500000
7838,-312.500000
7839,-312.500000
7840,-312.500000
7841,-308.593750
7842,-308.593750
7843,-304.687500
7844,-304.687500
7845,-304.687500
7846,-300.781250
7847,-300.781250
7848,-300.781250
7849,-296.875000
7850,-296.875000
7851,-292.968750
7852,-292.968750
7853,-289.062500
7854,-289.062500
7855,-285.156250
7856,-285.156250
7857,-281.250000
7858,-277.343750
7859,-277.343750
7860,-273.437500
7861,-273.437500
7862,-269.531250
7863,-265.625000
7864,-265.625000
7865,-261.718750
7866,-261.718750
7867,-257.812500
7868,-253.906250
7869,-250.000000
7870,-246.093750
7871,-246.093750
7872,-242.187500
7873,-238.281250
7874,-230.468750
7875,-234.375000
7876,-230.468750
7877,-226.562500
7878,-222.656250
7879,-218.750000
7880,-214.843750
7881,-214.843750
7882,-207.031250
7883,-207.031250
7884,-203.125000
7885,-199.218750
7886,-195.312500
7887,-191.406250
7888,-187.500000
7889,-183.593750
7890,-183.593750
7891,-175.781250
7892,-175.781250
7893,-171.875000
7894,-167.968750
7895,-164.062500
7896,-160.156250
7897,-156.250000
7898,-152.343750
7899,-148.437500
7900,-144.531250
7901,-140.625000
7902,-136.718750
7903,-132.812500
7904,-128.906250
7905,-125.000000
7906,-121.093750
7907,-117.187500
7908,-113.281250
7909,-109.375000
7910,-105.468750
7911,-101.562500
7912,-97.656250
7913,-93.750000
7914,-89.843750
7915,-85.937500
7916,-82.031250
7917,-78.125000
7918,-74.218750
7919,-70.312500
7920,-66.406250
7921,-62.500000
7922,-58.593750
7923,-54.687500
7924,-50.781250
7925,-46.875000
7926,-42.968750
7927,-39.062500
7928,-35.156250
7929,-31.250000
7930,-27.343750
7931,-23.437500
7932,-19.531250
7933,-15.625000
7934,-11.718750
7935,-7.812500
7936,-3.906250
7937,0.000000
7938,3.906250
7939,7.812500
7940,7.812500
7941,11.718750
7942,15.625000
7943,19.531250
7944,23.437500
7945,27.343750
7946,31.250000
7947,35.156250
7948,39.062500
7949,39.062500
7950,42.968750
7951,46.875000
7952,50.781250
7953,50.781250
7954,54.687500
7955,58.593750
7956,62.500000
7957,66.406250
7958,66.406250
7959,70.312500
7960,70.312500
7961,74.218750
7962,78.125000
7963,82.031250
7964,82.031250
7965,85.937500
7966,89.843750
7967,89.843750
7968,93.750000
7969,93.750000
7970,97.656250
7971,101.562500
7972,101.562500
7973,105.468750
7974,105.468750
7975,109.375000
7976,109.375000
7977,113.281250
7978,113.281250
7979,117.187500
7980,117.187500
7981,121.093750
7982,121.093750
7983,125.000000
7984,125.000000
7985,128.906250
7986,128.906250
7987,128.906250
7988,132.812500
7989,132.812500
7990,136.718750
7991,136.718750
7992,136.718750
7993,140.625000
7994,140.625000
7995,140.625000
7996,144.531250
7997,144.531250
7998,144.531250
7999,148.437500
8000,148.437500
8001,148.437500
8002,148.437500
8003,152.343750
8004,152.343750
8005,152.343750
8006,152.343750
8007,156.250000
8008,156.250000
8009,156.250000
8010,156.250000
8011,156.250000
8012,160.156250
8013,160.156250
8014,160.156250
8015,160.156250
8016,160.156250
8017,160.156250
8018,160.156250
8019,160.156250
8020,160.156250
8021,164.062500
8022,160.156250
8023,164.062500
8024,164.062500
8025,164.062500
8026,164.062500
8027,164.062500
8028,164.062500
8029,164.062500
8030,164.062500
8031,164.062500
8032,164.062500
8033,160.156250
8034,164.062500
8035,160.156250
8036,160.156250
8037,160.156250
8038,160.156250
8039,160.156250
8040,160.156250
8041,160.156250
8042,160.156250
8043,156.250000
8044,160.156250
8045,156.250000
8046,156.250000
8047,156.250000
8048,156.250000
8049,156.250000
8050,152.343750
8051,152.343750
8052,152.343750
8053,152.343750
8054,152.343750
8055,148.437500
8056,148.437500
8057,148.437500
8058,144.531250
8059,144.531250
8060,140.625000
8061,144.531250
8062,144.531250
8063,140.625000
8064,140.625000
8065,136.718750
8066,136.718750
8067,136.718750
8068,132.812500
8069,128.906250
8070,132.812500
8071,128.906250
8072,128.906250
8073,128.906250
8074,121.093750
8075,125.000000
8076,121.093750
8077,121.093750
8078,117.187500
8079,117.187500
8080,113.281250
8081,113.281250
8082,109.375000
8083,109.375000
8084,105.468750
8085,105.468750
8086,101.562500
8087,97.656250
8088,97.656250
8089,93.750000
8090,93.750000
8091,89.843750
8092,85.937500
8093,85.937500
8094,82.031250
8095,78.125000
8096,78.125000
8097,74.218750
8098,70.312500
8099,66.406250
8100,66.406250
8101,62.500000
8102,62.500000
8103,58.593750
8104,54.687500
8105,50.781250
8106,46.875000
8107,46.875000
8108,42.968750
8109,39.062500
8110,35.156250
8111,31.250000
8112,31.250000
8113,23.437500
8114,23.437500
8115,15.625000
8116,15.625000
8117,11.718750
8118,7.812500
8119,3.906250
8120,0.000000
8121,-3.906250
8122,-7.812500
8123,-11.718750
8124,-15.625000
8125,-19.531250
8126,-19.531250
8127,-23.437500
8128,-27.343750
8129,-31.250000
8130,-35.156250
8131,-39.062500
8132,-42.968750
8133,-46.875000
8134,-50.781250
8135,-54.687500
8136,-58.593750
8137,-62.500000
8138,-66.406250
8139,-70.312500
8140,-74.218750
8141,-78.125000
8142,-82.031250
8143,-85.937500
8144,-89.843750
8145,-93.750000
8146,-97.656250
8147,-101.562500
8148,-105.468750
8149,-109.375000
8150,-113.281250
8151,-117.187500
8152,-121.093750
8153,-125.000000
8154,-128.906250
8155,-132.812500
8156,-136.718750
8157,-140.625000
8158,-144.531250
8159,-148.437500
8160,-152.343750
8161,-156.250000
8162,-160.156250
8163,-164.062500
8164,-167.968750
8165,-171.875000
8166,-175.781250
8167,-179.687500
8168,-183.593750
8169,-187.500000
8170,-187.500000
8171,-191.406250
8172,-195.312500
8173,-199.218750
8174,-203.125000
8175,-207.031250
8176,-210.937500
8177,-214.843750
8178,-214.843750
8179,-218.750000
8180,-222.656250
8181,-226.562500
8182,-230.468750
8183,-234.375000
8184,-234.375000
8185,-238.281250
8186,-242.187500
8187,-246.093750
8188,-246.093750
8189,-250.000000
8190,-253.906250
8191,-253.906250
8192,-257.812500
8193,-261.718750
8194,-265.625000
8195,-265.625000
8196,-269.531250
8197,-273.437500
8198,-273.437500
8199,-277.343750
8200,-277.343750
8201,-281.250000
8202,-285.156250
8203,-285.156250
8204,-285.156250
8205,-289.062500
8206,-292.968750
8207,-292.968750
8208,-292.968750
8209,-296.875000
8210,-296.875000
8211,-300.781250
8212,-300.781250
8213,-304.687500
8214,-304.687500
8215,-304.687500
8216,-308.593750
8217,-308.593750
8218,-308.593750
8219,-312.500000
8220,-312.500000
8221,-312.500000
8222,-312.500000
8223,-316.406250
8224,-316.406250
8225,-316.406250
8226,-316.406250
8227,-320.312500
8228,-320.312500
8229,-320.312500
8230,-320.312500
8231,-320.312500
8232,-320.312500
8233,-320.312500
8234,-320.312500
8235,-320.312500
8236,-320.312500
8237,-324.218750
8238,-320.312500
8239,-320.312500
8240,-320.312500
8241,-320.312500
8242,-320.312500
8243,-320.312500
8244,-320.312500
8245,-320.312500
8246,-320.312500
8247,-320.312500
8248,-320.312500
8249,-316.406250
8250,-316.406250
8251,-316.406250
8252,-316.406250
8253,-312.500000
8254,-312.500000
8255,-312.500000
8256,-312.500000
8257,-308.593750
8258,-308.593750
8259,-308.593750
8260,-304.687500
8261,-304.687500
8262,-304.687500
8263,-300.781250
8264,-300.781250
8265,-296.875000
8266,-296.875000
8267,-296.875000
8268,-292.968750
8269,-292.968750
8270,-289.062500
8271,-285.156250
8272,-285.156250
8273,-281.250000
8274,-281.250000
8275,-277.343750
8276,-277.343750
8277,-273.437500
8278,-269.531250
8279,-269.531250
8280,-265.625000
8281,-265.625000
8282,-261.718750
8283,-257.812500
8284,-253.906250
8285,-253.906250
8286,-250.000000
8287,-246.093750
8288,-246.093750
8289,-242.187500
8290,-238.281250
8291,-234.375000
8292,-234.375000
8293,-230.468750
8294,-226.562500
8295,-222.656250
8296,-218.750000
8297,-214.843750
8298,-210.937500
8299,-210.937500
8300,-207.031250
8301,-203.125000
8302,-195.312500
8303,-195.312500
8304,-191.406250
8305,-187.500000
8306,-183.593750
8307,-179.687500
8308,-175.781250
8309,-171.875000
8310,-171.875000
8311,-167.968750
8312,-164.062500
8313,-156.250000
8314,-156.250000
8315,-152.343750
8316,-148.437500
8317,-144.531250
8318,-140.625000
8319,-136.718750
8320,-132.812500
8321,-128.906250
8322,-125.000000
8323,-121.093750
8324,-117.187500
8325,-113.281250
8326,-109.375000
8327,-105.468750
8328,-101.562500
8329,-93.750000
8330,-89.843750
8331,-89.843750
8332,-85.937500
8333,-78.125000
8334,-74.218750
8335,-70.312500
8336,-66.406250
8337,-62.500000
8338,-58.593750
8339,-58.593750
8340,-50.781250
8341,-46.875000
8342,-46.875000
8343,-42.968750
8344,-39.062500
8345,-35.156250
8346,-31.250000
8347,-27.343750
8348,-23.437500
8349,-19.531250
8350,-15.625000
8351,-11.718750
8352,-7.812500
8353,-3.906250
8354,0.000000
8355,3.906250
8356,7.812500
8357,11.718750
8358,15.625000
8359,15.625000
8360,19.531250
8361,23.437500
8362,27.343750
8363,31.250000
8364,35.156250
8365,35.156250
8366,39.062500
8367,42.968750
8368,46.875000
8369,50.781250
8370,50.781250
8371,54.687500
8372,58.593750
8373,62.500000
8374,62.500000
8375,66.406250
8376,70.312500
8377,74.218750
8378,74.218750
8379,78.125000
8380,82.031250
8381,82.031250
8382,85.937500
8383,85.937500
8384,89.843750
8385,93.750000
8386,93.750000
8387,97.656250
8388,101.562500
8389,101.562500
8390,105.468750
8391,105.468750
8392,109.375000
8393,109.375000
8394,113.281250
8395,113.281250
8396,117.187500
8397,117.187500
8398,121.093750
8399,121.093750
8400,125.000000
8401,125.000000
8402,128.906250
8403,128.906250
8404,132.812500
8405,132.812500
8406,132.812500
8407,136.718750
8408,136.718750
8409,136.718750
8410,140.625000
8411,140.625000
8412,140.625000
8413,144.531250
8414,144.531250
8415,144.531250
8416,148.437500
8417,148.437500
8418,148.437500
8419,148.437500
8420,152.343750
8421,152.343750
8422,152.343750
8423,152.343750
8424,152.343750
8425,156.250000
8426,156.250000
8427,156.250000
8428,156.250000
8429,156.250000
8430,156.250000
8431,160.156250
8432,160.156250
8433,160.156250
8434,160.156250
8435,160.156250
8436,160.156250
8437,160.156250
8438,160.156250
8439,160.156250
8440,160.156250
8441,160.156250
8442,160.156250
8443,164.062500
8444,160.156250
8445,160.156250
8446,164.062500
8447,164.062500
8448,160.156250
8449,160.156250
8450,160.156250
8451,160.156250
8452,160.156250
8453,160.156250
8454,160.156250
8455,160.156250
8456,160.156250
8457,160.156250
8458,160.156250
8459,160.156250
8460,160.156250
8461,160.156250
8462,156.250000
8463,156.250000
8464,156.250000
8465,156.250000
8466,156.250000
8467,152.343750
8468,152.343750
8469,152.343750
8470,152.343750
8471,152.343750
8472,148.437500
8473,148.437500
8474,148.437500
8475,148.437500
8476,144.531250
8477,144.531250
8478,144.531250
8479,140.625000
8480,140.625000
8481,140.625000
8482,140.625000
8483,136.718750
8484,136.718750
8485,136.718750
8486,132.812500
8487,128.906250
8488,128.906250
8489,128.906250
8490,125.000000
8491,125.000000
8492,121.093750
8493,121.093750
8494,117.187500
8495,117.187500
8496,117.187500
8497,113.281250
8498,109.375000
8499,109.375000
8500,109.375000
8501,105.468750
8502,101.562500
8503,101.562500
8504,97.656250
8505,97.656250
8506,93.750000
8507,89.843750
8508,89.843750
8509,85.937500
8510,82.031250
8511,82.031250
8512,78.125000
8513,74.218750
8514,74.218750
8515,70.312500
8516,66.406250
8517,66.406250
8518,62.500000
8519,58.593750
8520,54.687500
8521,54.687500
8522,50.781250
8523,46.875000
8524,42.968750
8525,42.968750
8526,39.062500
8527,35.156250
8528,31.250000
8529,27.343750
8530,23.437500
8531,19.531250
8532,19.531250
8533,15.625000
8534,11.718750
8535,7.812500
8536,3.906250
8537,0.000000
8538,-3.906250
8539,-7.812500
8540,-11.718750
8541,-15.625000
8542,-19.531250
8543,-23.437500
8544,-23.437500
8545,-31.250000
8546,-31.250000
8547,-39.062500
8548,-39.062500
8549,-42.968750
8550,-46.875000
8551,-50.781250
8552,-54.687500
8553,-58.593750
8554,-62.500000
8555,-66.406250
8556,-70.312500
8557,-74.218750
8558,-78.125000
8559,-82.031250
8560,-85.937500
8561,-89.843750
8562,-93.750000
8563,-97.656250
8564,-101.562500
8565,-105.468750
8566,-109.375000
8567,-113.281250
8568,-117.187500
8569,-121.093750
8570,-125.000000
8571,-128.906250
8572,-132.812500
8573,-136.718750
8574,-140.625000
8575,-144.531250
8576,-148.437500
8577,-152.343750
8578,-156.250000
8579,-160.156250
8580,-164.062500
8581,-167.968750
8582,-171.875000
8583,-175.781250
8584,-179.687500
8585,-183.593750
8586,-187.500000
8587,-191.406250
8588,-191.406250
8589,-195.312500
8590,-199.218750
8591,-203.125000
8592,-207.031250
8593,-210.937500
8594,-214.843750
8595,-218.750000
8596,-218.750000
8597,-222.656250
8598,-226.562500
8599,-230.468750
8600,-230.468750
8601,-234.375000
8602,-238.281250
8603,-242.187500
8604,-246.093750
8605,-250.000000
8606,-250.000000
8607,-253.906250
8608,-257.812500
8609,-257.812500
8610,-261.718750
8611,-265.625000
8612,-265.625000
8613,-269.531250
8614,-273.437500
8615,-273.437500
8616,-277.343750
8617,-277.343750
8618,-281.250000
8619,-281.250000
8620,-285.156250
8621,-289.062500
8622,-289.062500
8623,-292.968750
8624,-292.968750
8625,-296.875000
8626,-296.875000
8627,-296.875000
8628,-300.781250
8629,-300.781250
8630,-304.687500
8631,-304.687500
8632,-308.593750
8633,-308.593750
8634,-308.593750
8635,-308.593750
8636,-312.500000
8637,-312.500000
8638,-312.500000
8639,-312.500000
8640,-316.406250
8641,-316.406250
8642,-316.406250
8643,-316.406250
8644,-320.312500
8645,-320.312500
8646,-320.312500
8647,-320.312500
8648,-320.312500
8649,-320.312500
8650,-320.312500
8651,-320.312500
8652,-320.312500
8653,-320.312500
8654,-320.312500
8655,-320.312500
8656,-320.312500
8657,-320.312500
8658,-320.312500
8659,-320.312500
8660,-320.312500
8661,-320.312500
8662,-320.312500
8663,-320.312500
8664,-320.312500
8665,-316.406250
8666,-316.406250
8667,-316.406250
8668,-316.406250
8669,-316.406250
8670,-312.500000
8671,-312.500000
8672,-312.500000
8673,-308.593750
8674,-308.593750
8675,-308.593750
8676,-304.687500
8677,-304.687500
8678,-304.687500
8679,-300.781250
8680,-300.781250
8681,-296.875000
8682,-296.875000
8683,-296.875000
8684,-292.968750
8685,-292.968750
8686,-289.062500
8687,-289.062500
8688,-285.156250
8689,-285.156250
8690,-281.250000
8691,-281.250000
8692,-277.343750
8693,-277.343750
8694,-273.437500
8695,-269.531250
8696,-269.531250
8697,-265.625000
8698,-265.625000
8699,-261.718750
8700,-257.812500
8701,-253.906250
8702,-253.906250
8703,-250.000000
8704,-246.093750
8705,-242.187500
8706,-242.187500
8707,-238.281250
8708,-234.375000
8709,-230.468750
8710,-226.562500
8711,-226.562500
8712,-222.656250
8713,-218.750000
8714,-214.843750
8715,-210.937500
8716,-207.031250
8717,-207.031250
8718,-203.125000
8719,-199.218750
8720,-195.312500
8721,-191.406250
8722,-187.500000
8723,-183.593750
8724,-179.687500
8725,-175.781250
8726,-171.875000
8727,-167.968750
8728,-164.062500
8729,-160.156250
8730,-156.250000
8731,-152.343750
8732,-148.437500
8733,-144.531250
8734,-140.625000
8735,-140.625000
8736,-132.812500
8737,-128.906250
8738,-125.000000
8739,-125.000000
8740,-117.187500
8741,-113.281250
8742,-109.375000
8743,-109.375000
8744,-105.468750
8745,-97.656250
8746,-93.750000
8747,-89.843750
8748,-85.937500
8749,-82.031250
8750,-78.125000
8751,-74.218750
8752,-70.312500
8753,-66.406250
8754,-62.500000
8755,-58.593750
8756,-54.687500
8757,-50.781250
8758,-46.875000
8759,-42.968750
8760,-39.062500
8761,-35.156250
8762,-31.250000
8763,-27.343750
8764,-23.437500
8765,-23.437500
8766,-15.625000
8767,-15.625000
8768,-11.718750
8769,-3.906250
8770,-3.906250
8771,0.000000
8772,3.906250
8773,7.812500
8774,11.718750
8775,15.625000
8776,19.531250
8777,19.531250
8778,23.437500
8779,27.343750
8780,31.250000
8781,35.156250
8782,39.062500
8783,42.968750
8784,42.968750
8785,46.875000
8786,50.781250
8787,54.687500
8788,54.687500
8789,58.593750
8790,62.500000
8791,66.406250
8792,70.312500
8793,70.312500
8794,74.218750
8795,78.125000
8796,78.125000
8797,82.031250
8798,82.031250
8799,85.937500
8800,89.843750
8801,93.750000
8802,93.750000
8803,97.656250
8804,97.656250
8805,101.562500
8806,105.468750
8807,105.468750
8808,109.375000
8809,109.375000
8810,113.281250
8811,113.281250
8812,113.281250
8813,117.187500
8814,117.187500
8815,121.093750
8816,125.000000
8817,125.000000
8818,125.000000
8819,128.906250
8820,128.906250
8821,128.906250
8822,132.812500
8823,136.718750
8824,136.718750
8825,136.718750
8826,140.625000
8827,140.625000
8828,140.625000
8829,140.625000
8830,144.531250
8831,144.531250
8832,144.531250
8833,148.437500
8834,148.437500
8835,148.437500
8836,148.437500
8837,152.343750
8838,152.343750
8839,152.343750
8840,152.343750
8841,156.250000
8842,152.343750
8843,156.250000
8844,156.250000
8845,156.250000
8846,156.250000
8847,156.250000
8848,160.156250
8849,160.156250
8850,160.156250
8851,160.156250
8852,160.156250
8853,160.156250
8854,160.156250
8855,160.156250
8856,160.156250
8857,160.156250
8858,160.156250
8859,160.156250
8860,164.062500
8861,160.156250
8862,164.062500
8863,164.062500
8864,160.156250
8865,160.156250
8866,160.156250
8867,160.156250
8868,160.156250
8869,160.156250
8870,160.156250
8871,160.156250
8872,160.156250
8873,160.156250
8874,160.156250
8875,160.156250
8876,160.156250
8877,156.250000
8878,156.250000
8879,156.250000
8880,156.250000
8881,156.250000
8882,156.250000
8883,156.250000
8884,152.343750
8885,156.250000
8886,152.343750
8887,152.343750
8888,152.343750
8889,148.437500
8890,148.437500
8891,148.437500
8892,148.437500
8893,144.531250
8894,144.531250
8895,144.531250
8896,140.625000
8897,140.625000
8898,140.625000
8899,136.718750
8900,136.718750
8901,136.718750
8902,132.812500
8903,132.812500
8904,128.906250
8905,128.906250
8906,128.906250
8907,125.000000
8908,125.000000
8909,121.093750
8910,121.093750
8911,117.187500
8912,117.187500
8913,113.281250
8914,113.281250
8915,109.375000
8916,109.375000
8917,105.468750
8918,105.468750
8919,101.562500
8920,101.562500
8921,97.656250
8922,93.750000
8923,93.750000
8924,89.843750
8925,89.843750
8926,85.937500
8927,82.031250
8928,82.031250
8929,78.125000
8930,74.218750
8931,74.218750
8932,70.312500
8933,66.406250
8934,62.500000
8935,62.500000
8936,58.593750
8937,54.687500
8938,50.781250
8939,50.781250
8940,46.875000
8941,42.968750
8942,39.062500
8943,35.156250
8944,31.250000
8945,31.250000
8946,27.343750
8947,23.437500
8948,19.531250
8949,15.625000
8950,11.718750
8951,11.718750
8952,3.906250
8953,3.906250
8954,0.000000
8955,-3.906250
8956,-7.812500
8957,-11.718750
8958,-15.625000
8959,-19.531250
8960,-23.437500
8961,-27.343750
8962,-31.250000
8963,-35.156250
8964,-39.062500
8965,-42.968750
8966,-46.875000
8967,-50.781250
8968,-54.687500
8969,-54.687500
8970,-62.500000
8971,-66.406250
8972,-70.312500
8973,-74.218750
8974,-78.125000
8975,-82.031250
8976,-85.937500
8977,-89.843750
8978,-89.843750
8979,-93.750000
8980,-101.562500
8981,-105.468750
8982,-109.375000
8983,-109.375000
8984,-117.187500
8985,-117.187500
8986,-125.000000
8987,-125.000000
8988,-132.812500
8989,-136.718750
8990,-136.718750
8991,-140.625000
8992,-144.531250
8993,-152.343750
8994,-152.343750
8995,-156.250000
8996,-160.156250
8997,-164.062500
8998,-167.968750
8999,-171.875000
9000,-175.781250
9001,-179.687500
9002,-183.593750
9003,-187.500000
9004,-191.406250
9005,-195.312500
9006,-195.312500
9007,-203.125000
9008,-203.125000
9009,-207.031250
9010,-210.937500
9011,-214.843750
9012,-218.750000
9013,-222.656250
9014,-226.562500
9015,-226.562500
9016,-230.468750
9017,-234.375000
9018,-238.281250
9019,-242.187500
9020,-242.187500
9021,-246.093750
9022,-250.000000
9023,-253.906250
9024,-253.906250
9025,-257.812500
9026,-261.718750
9027,-261.718750
9028,-265.625000
9029,-269.531250
9030,-269.531250
9031,-273.437500
9032,-273.437500
9033,-277.343750
9034,-281.250000
9035,-281.250000
9036,-285.156250
9037,-285.156250
9038,-289.062500
9039,-289.062500
9040,-292.968750
9041,-292.968750
9042,-296.875000
9043,-296.875000
9044,-300.781250
9045,-300.781250
9046,-300.781250
9047,-304.687500
9048,-304.687500
9049,-304.687500
9050,-308.593750
9051,-308.593750
9052,-308.593750
9053,-312.500000
9054,-312.500000
9055,-312.500000
9056,-316.406250
9057,-316.406250
9058,-316.406250
9059,-316.406250
9060,-316.406250
9061,-316.406250
9062,-320.312500
9063,-320.312500
9064,-320.312500
9065,-320.312500
9066,-320.312500
9067,-320.312500
9068,-320.312500
9069,-320.312500
9070,-320.312500
9071,-320.312500
9072,-320.312500
9073,-320.312500
9074,-320.312500
9075,-320.312500
9076,-320.312500
9077,-320.312500
9078,-320.312500
9079,-320.312500
9080,-320.312500
9081,-320.312500
9082,-320.312500
9083,-316.406250
9084,-316.406250
9085,-316.406250
9086,-316.406250
9087,-312.500000
9088,-312.500000
9089,-312.500000
9090,-312.500000
9091,-308.593750
9092,-308.593750
9093,-308.593750
9094,-304.687500
9095,-304.687500
9096,-300.781250
9097,-300.781250
9098,-300.781250
9099,-296.875000
9100,-296.875000
9101,-292.968750
9102,-292.968750
9103,-289.062500
9104,-289.062500
9105,-285.156250
9106,-285.156250
9107,-281.250000
9108,-281.250000
9109,-277.343750
9110,-277.343750
9111,-273.437500
9112,-269.531250
9113,-265.625000
9114,-265.625000
9115,-261.718750
9116,-257.812500
9117,-257.812500
9118,-253.906250
9119,-253.906250
9120,-246.093750
9121,-246.093750
9122,-242.187500
9123,-238.281250
9124,-238.281250
9125,-234.375000
9126,-230.468750
9127,-226.562500
9128,-222.656250
9129,-218.750000
9130,-218.750000
9131,-214.843750
9132,-210.937500
9133,-207.031250
9134,-203.125000
9135,-199.218750
9136,-199.218750
9137,-191.406250
9138,-191.406250
9139,-187.500000
9140,-183.593750
9141,-179.687500
9142,-175.781250
9143,-171.875000
9144,-167.968750
9145,-164.062500
9146,-160.156250
9147,-156.250000
9148,-152.343750
9149,-148.437500
9150,-144.531250
9151,-140.625000
9152,-136.718750
9153,-132.812500
9154,-128.906250
9155,-125.000000
9156,-121.093750
9157,-117.187500
9158,-113.281250
9159,-109.375000
9160,-105.468750
9161,-101.562500
9162,-97.656250
9163,-93.750000
9164,-89.843750
9165,-85.937500
9166,-82.031250
9167,-78.125000
9168,-74.218750
9169,-70.312500
9170,-66.406250
9171,-62.500000
9172,-58.593750
9173,-54.687500
9174,-50.781250
9175,-46.875000
9176,-42.968750
9177,-39.062500
9178,-35.156250
9179,-31.250000
9180,-27.343750
9181,-23.437500
9182,-19.531250
9183,-15.625000
9184,-11.718750
9185,-7.812500
9186,-7.812500
9187,0.000000
9188,0.000000
9189,3.906250
9190,7.812500
9191,11.718750
9192,15.625000
9193,19.531250
9194,23.437500
9195,23.437500
9196,27.343750
9197,31.250000
9198,35.156250
9199,39.062500
9200,42.968750
9201,42.968750
9202,46.875000
9203,50.781250
9204,54.687500
9205,58.593750
9206,58.593750
9207,62.500000
9208,66.406250
9209,70.312500
9210,70.312500
9211,74.218750
9212,78.125000
9213,78.125000
9214,82.031250
9215,82.031250
9216,85.937500
9217,89.843750
9218,93.750000
9219,93.750000
9220,97.656250
9221,97.656250
9222,101.562500
9223,101.562500
9224,105.468750
9225,109.375000
9226,109.375000
9227,113.281250
9228,113.281250
9229,117.187500
9230,117.187500
9231,117.187500
9232,121.093750
9233,125.000000
9234,125.000000
9235,128.906250
9236,128.906250
9237,128.906250
9238,132.812500
9239,132.812500
9240,136.718750
9241,136.718750
9242,136.718750
9243,140.625000
9244,140.625000
9245,140.625000
9246,144.531250
9247,144.531250
9248,144.531250
9249,148.437500
9250,148.437500
9251,148.437500
9252,148.437500
9253,148.437500
9254,152.343750
9255,152.343750
9256,152.343750
9257,156.250000
9258,152.343750
9259,156.250000
9260,156.250000
9261,156.250000
9262,156.250000
9263,156.250000
9264,160.156250
9265,160.156250
9266,160.156250
9267,160.156250
9268,160.156250
9269,160.156250
9270,160.156250
9271,160.156250
9272,160.156250
9273,160.156250
9274,160.156250
9275,164.062500
9276,160.156250
9277,160.156250
9278,164.062500
9279,164.062500
9280,160.156250
9281,160.156250
9282,164.062500
9283,160.156250
9284,160.156250
9285,160.156250
9286,160.156250
9287,160.156250
9288,160.156250
9289,160.156250
9290,160.156250
9291,160.156250
9292,160.156250
9293,160.156250
9294,156.250000
9295,156.250000
9296,156.250000
9297,156.250000
9298,156.250000
9299,156.250000
9300,156.250000
9301,156.250000
9302,152.343750
9303,152.343750
9304,152.343750
9305,152.343750
9306,148.437500
9307,148.437500
9308,148.437500
9309,148.437500
9310,144.531250
9311,144.531250
9312,144.531250
9313,140.625000
9314,140.625000
9315,140.625000
9316,136.718750
9317,136.718750
9318,136.718750
9319,132.812500
9320,132.812500
9321,132.812500
9322,128.906250
9323,128.906250
9324,125.000000
9325,125.000000
9326,125.000000
9327,121.093750
9328,117.187500
9329,117.187500
9330,113.281250
9331,113.281250
9332,109.375000
9333,109.375000
9334,105.468750
9335,105.468750
9336,101.562500
9337,97.656250
9338,97.656250
9339,93.750000
9340,93.750000
9341,89.843750
9342,85.937500
9343,85.937500
9344,82.031250
9345,82.031250
9346,78.125000
9347,74.218750
9348,70.312500
9349,70.312500
9350,66.406250
9351,62.500000
9352,62.500000
9353,58.593750
9354,54.687500
9355,50.781250
9356,46.875000
9357,46.875000
9358,42.968750
9359,39.062500
9360,35.156250
9361,35.156250
9362,31.250000
9363,27.343750
9364,23.437500
9365,19.531250
9366,15.625000
9367,11.718750
9368,7.812500
9369,3.906250
9370,3.906250
9371,0.000000
9372,-3.906250
9373,-7.812500
9374,-11.718750
9375,-15.625000
9376,-19.531250
9377,-23.437500
9378,-27.343750
9379,-31.250000
9380,-35.156250
9381,-39.062500
9382,-42.968750
9383,-46.875000
9384,-50.781250
9385,-54.687500
9386,-58.593750
9387,-58.593750
9388,-66.406250
9389,-70.312500
9390,-74.218750
9391,-78.125000
9392,-82.031250
9393,-85.937500
9394,-89.843750
9395,-93.750000
9396,-97.656250
9397,-101.562500
9398,-105.468750
9399,-109.375000
9400,-113.281250
9401,-117.187500
9402,-121.093750
9403,-125.000000
9404,-128.906250
9405,-132.812500
9406,-136.718750
9407,-140.625000
9408,-144.531250
9409,-148.437500
9410,-152.343750
9411,-156.250000
9412,-160.156250
9413,-164.062500
9414,-164.062500
9415,-171.875000
9416,-171.875000
9417,-179.687500
9418,-179.687500
9419,-183.593750
9420,-187.500000
9421,-191.406250
9422,-195.312500
9423,-199.218750
9424,-203.125000
9425,-207.031250
9426,-210.937500
9427,-210.937500
9428,-214.843750
9429,-218.750000
9430,-222.656250
9431,-226.562500
9432,-230.468750
9433,-230.468750
9434,-234.375000
9435,-238.281250
9436,-242.187500
9437,-246.093750
9438,-246.093750
9439,-250.000000
9440,-253.906250
9441,-253.906250
9442,-257.812500
9443,-261.718750
9444,-261.718750
9445,-265.625000
9446,-269.531250
9447,-269.531250
9448,-273.437500
9449,-273.437500
9450,-277.343750
9451,-281.250000
9452,-281.250000
9453,-285.156250
9454,-285.156250
9455,-289.062500
9456,-292.968750
9457,-292.968750
9458,-296.875000
9459,-296.875000
9460,-296.875000
9461,-300.781250
9462,-300.781250
9463,-304.687500
9464,-304.687500
9465,-304.687500
9466,-308.593750
9467,-308.593750
9468,-308.593750
9469,-312.500000
9470,-312.500000
9471,-312.500000
9472,-316.406250
9473,-316.406250
9474,-316.406250
9475,-316.406250
9476,-316.406250
9477,-320.312500
9478,-320.312500
9479,-320.312500
9480,-320.312500
9481,-320.312500
9482,-320.312500
9483,-320.312500
9484,-320.312500
9485,-320.312500
9486,-324.218750
9487,-324.218750
9488,-324.218750
9489,-324.218750
9490,-324.218750
9491,-324.218750
9492,-320.312500
9493,-320.312500
9494,-320.312500
9495,-320.312500
9496,-320.312500
9497,-320.312500
9498,-320.312500
9499,-316.406250
9500,-316.406250
9501,-316.406250
9502,-316.406250
9503,-316.406250
9504,-312.500000
9505,-312.500000
9506,-312.500000
9507,-308.593750
9508,-308.593750
9509,-308.593750
9510,-304.687500
9511,-304.687500
9512,-304.687500
9513,-300.781250
9514,-300.781250
9515,-300.781250
9516,-296.875000
9517,-296.875000
9518,-292.968750
9519,-292.968750
9520,-289.062500
9521,-289.062500
9522,-285.156250
9523,-285.156250
9524,-281.250000
9525,-281.250000
9526,-277.343750
9527,-273.437500
9528,-273.437500
9529,-269.531250
9530,-269.531250
9531,-265.625000
9532,-261.718750
9533,-257.812500
9534,-257.812500
9535,-253.906250
9536,-250.000000
9537,-250.000000
9538,-246.093750
9539,-242.187500
9540,-238.281250
9541,-238.281250
9542,-234.375000
9543,-230.468750
9544,-226.562500
9545,-222.656250
9546,-218.750000
9547,-218.750000
9548,-214.843750
9549,-210.937500
9550,-207.031250
9551,-203.125000
9552,-199.218750
9553,-195.312500
9554,-195.312500
9555,-191.406250
9556,-187.500000
9557,-183.593750
9558,-179.687500
9559,-175.781250
9560,-171.875000
9561,-167.968750
9562,-164.062500
9563,-160.156250
9564,-156.250000
9565,-152.343750
9566,-148.437500
9567,-144.531250
9568,-140.625000
9569,-136.718750
9570,-132.812500
9571,-128.906250
9572,-125.000000
9573,-121.093750
9574,-117.187500
9575,-113.281250
9576,-109.375000
9577,-105.468750
9578,-101.562500
9579,-97.656250
9580,-93.750000
9581,-89.843750
9582,-85.937500
9583,-82.031250
9584,-78.125000
9585,-74.218750
9586,-70.312500
9587,-66.406250
9588,-62.500000
9589,-58.593750
9590,-54.687500
9591,-50.781250
9592,-46.875000
9593,-42.968750
9594,-39.062500
9595,-35.156250
9596,-31.250000
9597,-27.343750
9598,-23.437500
9599,-19.531250
9600,-15.625000
9601,-11.718750
9602,-7.812500
9603,-3.906250
9604,-3.906250
9605,0.000000
9606,7.812500
9607,7.812500
9608,11.718750
9609,15.625000
9610,19.531250
9611,23.437500
9612,27.343750
9613,27.343750
9614,31.250000
9615,35.156250
9616,39.062500
9617,42.968750
9618,46.875000
9619,46.875000
9620,50.781250
9621,54.687500
9622,58.593750
9623,62.500000
9624,62.500000
9625,66.406250
9626,70.312500
9627,70.312500
9628,74.218750
9629,78.125000
9630,82.031250
9631,82.031250
9632,85.937500
9633,85.937500
9634,89.843750
9635,93.750000
9636,93.750000
9637,97.656250
9638,97.656250
9639,101.562500
9640,105.468750
9641,105.468750
9642,109.375000
9643,109.375000
9644,113.281250
9645,113.281250
9646,117.187500
9647,117.187500
9648,121.093750
9649,121.093750
9650,125.000000
9651,125.000000
9652,128.906250
9653,128.906250
9654,128.906250
9655,132.812500
9656,132.812500
9657,136.718750
9658,136.718750
9659,136.718750
9660,140.625000
9661,140.625000
9662,140.625000
9663,144.531250
9664,144.531250
9665,144.531250
9666,144.531250
9667,148.437500
9668,148.437500
9669,148.437500
9670,148.437500
9671,152.343750
9672,152.343750
9673,152.343750
9674,152.343750
9675,156.250000
9676,156.250000
9677,156.250000
9678,156.250000
9679,156.250000
9680,156.250000
9681,160.156250
9682,160.156250
9683,160.156250
9684,160.156250
9685,160.156250
9686,160.156250
9687,160.156250
9688,160.156250
9689,160.156250
9690,160.156250
9691,160.156250
9692,164.062500
9693,160.156250
9694,164.062500
9695,164.062500
9696,160.156250
9697,164.062500
9698,164.062500
9699,160.156250
9700,164.062500
9701,160.156250
9702,160.156250
9703,160.156250
9704,160.156250
9705,160.156250
9706,160.156250
9707,160.156250
9708,160.156250
9709,160.156250
9710,160.156250
9711,160.156250
9712,156.250000
9713,156.250000
9714,156.250000
9715,156.250000
9716,156.250000
9717,152.343750
9718,156.250000
9719,152.343750
9720,152.343750
9721,152.343750
9722,148.437500
9723,148.437500
9724,148.437500
9725,148.437500
9726,144.531250
9727,144.531250
9728,144.531250
9729,144.531250
9730,140.625000
9731,140.625000
9732,140.625000
9733,136.718750
9734,136.718750
9735,136.718750
9736,132.812500
9737,132.812500
9738,128.906250
9739,128.906250
9740,128.906250
9741,125.000000
9742,121.093750
9743,121.093750
9744,121.093750
9745,117.187500
9746,117.187500
9747,113.281250
9748,113.281250
9749,109.375000
9750,109.375000
9751,105.468750
9752,105.468750
9753,101.562500
9754,101.562500
9755,97.656250
9756,93.750000
9757,93.750000
9758,89.843750
9759,89.843750
9760,85.937500
9761,82.031250
9762,78.125000
9763,78.125000
9764,74.218750
9765,70.312500
9766,70.312500
9767,66.406250
9768,62.500000
9769,62.500000
9770,58.593750
9771,54.687500
9772,50.781250
9773,50.781250
9774,46.875000
9775,42.968750
9776,39.062500
9777,35.156250
9778,31.250000
9779,31.250000
9780,27.343750
9781,23.437500
9782,19.531250
9783,15.625000
9784,11.718750
9785,11.718750
9786,3.906250
9787,0.000000
9788,0.000000
9789,-3.906250
9790,-7.812500
9791,-11.718750
9792,-15.625000
9793,-19.531250
9794,-23.437500
9795,-27.343750
9796,-31.250000
9797,-35.156250
9798,-39.062500
9799,-42.968750
9800,-46.875000
9801,-50.781250
9802,-54.687500
9803,-58.593750
9804,-62.500000
9805,-66.406250
9806,-70.312500
9807,-74.218750
9808,-78.125000
9809,-82.031250
9810,-85.937500
9811,-89.843750
9812,-93.750000
9813,-97.656250
9814,-101.562500
9815,-109.375000
9816,-109.375000
9817,-113.281250
9818,-117.187500
9819,-121.093750
9820,-125.000000
9821,-128.906250
9822,-132.812500
9823,-136.718750
9824,-140.625000
9825,-144.531250
9826,-148.437500
9827,-152.343750
9828,-156.250000
9829,-160.156250
9830,-164.062500
9831,-167.968750
9832,-167.968750
9833,-175.781250
9834,-175.781250
9835,-179.687500
9836,-183.593750
9837,-187.500000
9838,-191.406250
9839,-195.312500
9840,-199.218750
9841,-203.125000
9842,-207.031250
9843,-207.031250
9844,-214.843750
9845,-214.843750
9846,-218.750000
9847,-222.656250
9848,-226.562500
9849,-226.562500
9850,-230.468750
9851,-234.375000
9852,-238.281250
9853,-242.187500
9854,-242.187500
9855,-246.093750
9856,-250.000000
9857,-253.906250
9858,-253.906250
9859,-257.812500
9860,-261.718750
9861,-265.625000
9862,-265.625000
9863,-269.531250
9864,-269.531250
9865,-273.437500
9866,-277.343750
9867,-277.343750
9868,-281.250000
9869,-281.250000
9870,-285.156250
9871,-289.062500
9872,-289.062500
9873,-292.968750
9874,-292.968750
9875,-292.968750
9876,-296.875000
9877,-296.875000
9878,-300.781250
9879,-300.781250
9880,-304.687500
9881,-304.687500
9882,-304.687500
9883,-308.593750
9884,-308.593750
9885,-308.593750
9886,-312.500000
9887,-312.500000
9888,-312.500000
9889,-312.500000
9890,-316.406250
9891,-316.406250
9892,-316.406250
9893,-316.406250
9894,-316.406250
9895,-320.312500
9896,-320.312500
9897,-320.312500
9898,-320.312500
9899,-320.312500
9900,-320.312500
9901,-320.312500
9902,-320.312500
9903,-320.312500
9904,-320.312500
9905,-324.218750
9906,-324.218750
9907,-320.312500
9908,-320.312500
9909,-320.312500
9910,-320.312500
9911,-320.312500
9912,-320.312500
9913,-320.312500
9914,-320.312500
9915,-320.312500
9916,-320.312500
9917,-316.406250
9918,-316.406250
9919,-316.406250
9920,-316.406250
9921,-312.500000
9922,-312.500000
9923,-312.500000
9924,-312.500000
9925,-308.593750
9926,-308.593750
9927,-304.687500
9928,-304.687500
9929,-304.687500
9930,-304.687500
9931,-300.781250
9932,-296.875000
9933,-296.875000
9934,-296.875000
9935,-292.968750
9936,-292.968750
9937,-289.062500
9938,-289.062500
9939,-285.156250
9940,-285.156250
9941,-281.250000
9942,-277.343750
9943,-277.343750
9944,-273.437500
9945,-273.437500
9946,-269.531250
9947,-269.531250
9948,-265.625000
9949,-261.718750
9950,-257.812500
9951,-257.812500
9952,-253.906250
9953,-250.000000
9954,-250.000000
9955,-246.093750
9956,-242.187500
9957,-238.281250
9958,-234.375000
9959,-234.375000
9960,-230.468750
9961,-226.562500
9962,-222.656250
9963,-218.750000
9964,-218.750000
9965,-214.843750
9966,-210.937500
9967,-207.031250
9968,-203.125000
9969,-199.218750
9970,-195.312500
9971,-191.406250
9972,-187.500000
9973,-183.593750
9974,-183.593750
9975,-179.687500
9976,-175.781250
9977,-171.875000
9978,-167.968750
9979,-164.062500
9980,-160.156250
9981,-156.250000
9982,-152.343750
9983,-148.437500
9984,-144.531250
9985,-140.625000
9986,-136.718750
9987,-132.812500
9988,-128.906250
9989,-125.000000
9990,-121.093750
9991,-117.187500
9992,-113.281250
9993,-109.375000
9994,-105.468750
9995,-101.562500
9996,-97.656250
9997,-93.750000
9998,-89.843750
9999,-85.937500
10000,-82.031250
