Channel              :,CH1
Frequency            :,1.010kHz
Period               :,0.990ms
PK-PK                :,273.4mV
Probe attenuation    :,1X
Voltage per ADC value:,0.244141mV
Time interval        :,1.00000us

index,CH1_Voltage(mV)
1,-66.406250
2,-66.406250
3,-66.406250
4,-66.406250
5,-66.406250
6,-62.500000
7,-62.500000
8,-62.500000
9,-62.500000
10,-62.500000
11,-58.593750
12,-58.593750
13,-58.593750
14,-58.593750
15,-58.593750
16,-54.687500
17,-54.687500
18,-54.687500
19,-54.687500
20,-50.781250
21,-50.781250
22,-50.781250
23,-50.781250
24,-46.875000
25,-46.875000
26,-46.875000
27,-46.875000
28,-42.968750
29,-42.968750
30,-42.968750
31,-42.968750
32,-42.968750
33,-39.062500
34,-39.062500
35,-39.062500
36,-39.062500
37,-35.156250
38,-35.156250
39,-35.156250
40,-35.156250
41,-35.156250
42,-31.250000
43,-31.250000
44,-31.250000
45,-31.250000
46,-27.343750
47,-27.343750
48,-27.343750
49,-27.343750
50,-23.437500
51,-23.437500
52,-23.437500
53,-23.437500
54,-19.531250
55,-23.437500
56,-19.531250
57,-19.531250
58,-15.625000
59,-15.625000
60,-15.625000
61,-15.625000
62,-15.625000
63,-15.625000
64,-11.718750
65,-11.718750
66,-11.718750
67,-7.812500
68,-7.812500
69,-7.812500
70,-7.812500
71,-7.812500
72,-7.812500
73,-3.906250
74,-3.906250
75,-3.906250
76,0.000000
77,0.000000
78,0.000000
79,0.000000
80,0.000000
81,0.000000
82,3.906250
83,3.906250
84,3.906250
85,3.906250
86,7.812500
87,7.812500
88,7.812500
89,7.812500
90,7.812500
91,11.718750
92,11.718750
93,11.718750
94,11.718750
95,11.718750
96,15.625000
97,15.625000
98,15.625000
99,19.531250
100,19.531250
101,19.531250
102,19.531250
103,19.531250
104,23.437500
105,23.437500
106,23.437500
107,23.437500
108,23.437500
109,23.437500
110,27.343750
111,27.343750
112,27.343750
113,31.250000
114,31.250000
115,31.250000
116,31.250000
117,31.250000
118,31.250000
119,35.156250
120,35.156250
121,35.156250
122,35.156250
123,35.156250
124,35.156250
125,39.062500
126,39.062500
127,39.062500
128,39.062500
129,42.968750
130,42.968750
131,42.968750
132,42.968750
133,42.968750
134,46.875000
135,46.875000
136,46.875000
137,46.875000
138,46.875000
139,50.781250
140,50.781250
141,50.781250
142,50.781250
143,50.781250
144,50.781250
145,54.687500
146,54.687500
147,54.687500
148,54.687500
149,54.687500
150,58.593750
151,58.593750
152,58.593750
153,58.593750
154,58.593750
155,58.593750
156,62.500000
157,62.500000
158,62.500000
159,62.500000
160,62.500000
161,62.500000
162,66.406250
163,66.406250
164,66.406250
165,66.406250
166,66.406250
167,70.312500
168,70.312500
169,70.312500
170,70.312500
171,70.312500
172,70.312500
173,70.312500
174,74.218750
175,74.218750
176,74.218750
177,74.218750
178,74.218750
179,74.218750
180,74.218750
181,78.125000
182,78.125000
183,78.125000
184,78.125000
185,82.031250
186,82.031250
187,82.031250
188,82.031250
189,82.031250
190,82.031250
191,82.031250
192,82.031250
193,85.937500
194,85.937500
195,85.937500
196,85.937500
197,85.937500
198,85.937500
199,85.937500
200,85.937500
201,85.937500
202,89.843750
203,89.843750
204,89.843750
205,89.843750
206,89.843750
207,89.843750
208,89.843750
209,89.843750
210,93.750000
211,93.750000
212,93.750000
213,93.750000
214,93.750000
215,93.750000
216,93.750000
217,93.750000
218,93.750000
219,97.656250
220,97.656250
221,97.656250
222,97.656250
223,97.656250
224,97.656250
225,97.656250
226,97.656250
227,97.656250
228,97.656250
229,97.656250
230,101.562500
231,101.562500
232,101.562500
233,101.562500
234,101.562500
235,101.562500
236,101.562500
237,101.562500
238,105.468750
239,101.562500
240,105.468750
241,105.468750
242,105.468750
243,105.468750
244,105.468750
245,105.468750
246,105.468750
247,105.468750
248,105.468750
249,105.468750
250,109.375000
251,105.468750
252,105.468750
253,109.375000
254,109.375000
255,109.375000
256,109.375000
257,109.375000
258,109.375000
259,109.375000
260,109.375000
261,109.375000
262,109.375000
263,109.375000
264,109.375000
265,113.281250
266,113.281250
267,113.281250
268,113.281250
269,113.281250
270,109.375000
271,113.281250
272,113.281250
273,113.281250
274,113.281250
275,113.281250
276,113.281250
277,113.281250
278,113.281250
279,113.281250
280,113.281250
281,113.281250
282,113.281250
283,113.281250
284,113.281250
285,113.281250
286,113.281250
287,117.187500
288,113.281250
289,117.187500
290,117.187500
291,117.187500
292,117.187500
293,117.187500
294,117.187500
295,117.187500
296,117.187500
297,117.187500
298,117.187500
299,117.187500
300,117.187500
301,117.187500
302,117.187500
303,117.187500
304,117.187500
305,117.187500
306,117.187500
307,117.187500
308,117.187500
309,117.187500
310,117.187500
311,117.187500
312,117.187500
313,117.187500
314,117.187500
315,117.187500
316,117.187500
317,117.187500
318,117.187500
319,117.187500
320,117.187500
321,117.187500
322,117.187500
323,117.187500
324,117.187500
325,117.187500
326,117.187500
327,117.187500
328,117.187500
329,117.187500
330,117.187500
331,117.187500
332,117.187500
333,117.187500
334,117.187500
335,117.187500
336,117.187500
337,117.187500
338,117.187500
339,117.187500
340,117.187500
341,117.187500
342,117.187500
343,117.187500
344,117.187500
345,117.187500
346,117.187500
347,113.281250
348,117.187500
349,117.187500
350,117.187500
351,117.187500
352,117.187500
353,113.281250
354,117.187500
355,117.187500
356,117.187500
357,113.281250
358,113.281250
359,113.281250
360,113.281250
361,113.281250
362,113.281250
363,113.281250
364,113.281250
365,113.281250
366,113.281250
367,113.281250
368,113.281250
369,113.281250
370,113.281250
371,113.281250
372,109.375000
373,109.375000
374,113.281250
375,109.375000
376,109.375000
377,109.375000
378,109.375000
379,109.375000
380,109.375000
381,109.375000
382,109.375000
383,109.375000
384,109.375000
385,109.375000
386,109.375000
387,109.375000
388,105.468750
389,105.468750
390,105.468750
391,105.468750
392,105.468750
393,105.468750
394,105.468750
395,105.468750
396,105.468750
397,105.468750
398,105.468750
399,101.562500
400,101.562500
401,101.562500
402,101.562500
403,101.562500
404,101.562500
405,101.562500
406,101.562500
407,101.562500
408,101.562500
409,101.562500
410,101.562500
411,101.562500
412,97.656250
413,97.656250
414,97.656250
415,97.656250
416,97.656250
417,97.656250
418,97.656250
419,97.656250
420,97.656250
421,93.750000
422,93.750000
423,93.750000
424,93.750000
425,93.750000
426,93.750000
427,93.750000
428,93.750000
429,89.843750
430,93.750000
431,89.843750
432,89.843750
433,89.843750
434,89.843750
435,85.937500
436,85.937500
437,85.937500
438,85.937500
439,85.937500
440,85.937500
441,85.937500
442,85.937500
443,85.937500
444,82.031250
445,82.031250
446,82.031250
447,82.031250
448,82.031250
449,82.031250
450,82.031250
451,78.125000
452,78.125000
453,78.125000
454,78.125000
455,78.125000
456,78.125000
457,74.218750
458,74.218750
459,74.218750
460,74.218750
461,74.218750
462,74.218750
463,74.218750
464,70.312500
465,70.312500
466,70.312500
467,70.312500
468,70.312500
469,70.312500
470,66.406250
471,66.406250
472,66.406250
473,66.406250
474,66.406250
475,66.406250
476,62.500000
477,62.500000
478,62.500000
479,62.500000
480,62.500000
481,62.500000
482,58.593750
483,58.593750
484,58.593750
485,58.593750
486,58.593750
487,54.687500
488,54.687500
489,54.687500
490,54.687500
491,54.687500
492,54.687500
493,50.781250
494,50.781250
495,50.781250
496,50.781250
497,50.781250
498,46.875000
499,46.875000
500,46.875000
501,46.875000
502,46.875000
503,42.968750
504,42.968750
505,42.968750
506,42.968750
507,42.968750
508,39.062500
509,39.062500
510,39.062500
511,39.062500
512,39.062500
513,39.062500
514,35.156250
515,35.156250
516,35.156250
517,35.156250
518,31.250000
519,31.250000
520,31.250000
521,31.250000
522,31.250000
523,27.343750
524,27.343750
525,27.343750
526,27.343750
527,27.343750
528,23.437500
529,23.437500
530,23.437500
531,23.437500
532,23.437500
533,19.531250
534,19.531250
535,19.531250
536,19.531250
537,15.625000
538,15.625000
539,15.625000
540,15.625000
541,15.625000
542,15.625000
543,11.718750
544,11.718750
545,11.718750
546,7.812500
547,7.812500
548,7.812500
549,7.812500
550,7.812500
551,7.812500
552,3.906250
553,3.906250
554,3.906250
555,0.000000
556,0.000000
557,0.000000
558,0.000000
559,0.000000
560,0.000000
561,-3.906250
562,-3.906250
563,-3.906250
564,-3.906250
565,-7.812500
566,-7.812500
567,-7.812500
568,-7.812500
569,-11.718750
570,-11.718750
571,-11.718750
572,-11.718750
573,-11.718750
574,-15.625000
575,-15.625000
576,-15.625000
577,-19.531250
578,-19.531250
579,-19.531250
580,-19.531250
581,-19.531250
582,-19.531250
583,-23.437500
584,-23.437500
585,-23.437500
586,-27.343750
587,-27.343750
588,-27.343750
589,-27.343750
590,-27.343750
591,-31.250000
592,-31.250000
593,-31.250000
594,-31.250000
595,-35.156250
596,-35.156250
597,-35.156250
598,-35.156250
599,-39.062500
600,-39.062500
601,-39.062500
602,-39.062500
603,-39.062500
604,-42.968750
605,-42.968750
606,-42.968750
607,-42.968750
608,-42.968750
609,-46.875000
610,-46.875000
611,-46.875000
612,-46.875000
613,-50.781250
614,-50.781250
615,-50.781250
616,-50.781250
617,-54.687500
618,-54.687500
619,-54.687500
620,-54.687500
621,-54.687500
622,-58.593750
623,-58.593750
624,-58.593750
625,-62.500000
626,-62.500000
627,-62.500000
628,-62.500000
629,-62.500000
630,-62.500000
631,-66.406250
632,-66.406250
633,-66.406250
634,-66.406250
635,-70.312500
636,-70.312500
637,-70.312500
638,-70.312500
639,-70.312500
640,-74.218750
641,-74.218750
642,-74.218750
643,-74.218750
644,-74.218750
645,-78.125000
646,-78.125000
647,-78.125000
648,-78.125000
649,-82.031250
650,-82.031250
651,-82.031250
652,-82.031250
653,-82.031250
654,-85.937500
655,-85.937500
656,-85.937500
657,-85.937500
658,-85.937500
659,-89.843750
660,-89.843750
661,-89.843750
662,-89.843750
663,-93.750000
664,-93.750000
665,-93.750000
666,-93.750000
667,-93.750000
668,-93.750000
669,-97.656250
670,-97.656250
671,-97.656250
672,-97.656250
673,-101.562500
674,-101.562500
675,-97.656250
676,-101.562500
677,-101.562500
678,-101.562500
679,-105.468750
680,-105.468750
681,-105.468750
682,-105.468750
683,-105.468750
684,-105.468750
685,-109.375000
686,-109.375000
687,-109.375000
688,-109.375000
689,-113.281250
690,-113.281250
691,-113.281250
692,-113.281250
693,-113.281250
694,-113.281250
695,-113.281250
696,-117.187500
697,-117.187500
698,-117.187500
699,-117.187500
700,-117.187500
701,-117.187500
702,-121.093750
703,-121.093750
704,-121.093750
705,-121.093750
706,-121.093750
707,-125.000000
708,-125.000000
709,-125.000000
710,-125.000000
711,-125.000000
712,-125.000000
713,-125.000000
714,-128.906250
715,-128.906250
716,-128.906250
717,-128.906250
718,-132.812500
719,-128.906250
720,-128.906250
721,-132.812500
722,-132.812500
723,-132.812500
724,-132.812500
725,-132.812500
726,-132.812500
727,-132.812500
728,-136.718750
729,-136.718750
730,-136.718750
731,-136.718750
732,-136.718750
733,-136.718750
734,-136.718750
735,-136.718750
736,-140.625000
737,-140.625000
738,-140.625000
739,-140.625000
740,-140.625000
741,-140.625000
742,-140.625000
743,-140.625000
744,-140.625000
745,-144.531250
746,-144.531250
747,-144.531250
748,-144.531250
749,-144.531250
750,-144.531250
751,-144.531250
752,-144.531250
753,-144.531250
754,-144.531250
755,-148.437500
756,-148.437500
757,-148.437500
758,-148.437500
759,-148.437500
760,-148.437500
761,-148.437500
762,-148.437500
763,-148.437500
764,-148.437500
765,-152.343750
766,-148.437500
767,-152.343750
768,-148.437500
769,-152.343750
770,-152.343750
771,-152.343750
772,-152.343750
773,-152.343750
774,-152.343750
775,-152.343750
776,-152.343750
777,-152.343750
778,-152.343750
779,-152.343750
780,-152.343750
781,-152.343750
782,-152.343750
783,-156.250000
784,-152.343750
785,-156.250000
786,-156.250000
787,-156.250000
788,-156.250000
789,-156.250000
790,-156.250000
791,-156.250000
792,-156.250000
793,-156.250000
794,-156.250000
795,-156.250000
796,-156.250000
797,-156.250000
798,-156.250000
799,-156.250000
800,-156.250000
801,-156.250000
802,-156.250000
803,-156.250000
804,-156.250000
805,-156.250000
806,-156.250000
807,-156.250000
808,-156.250000
809,-156.250000
810,-156.250000
811,-156.250000
812,-156.250000
813,-156.250000
814,-156.250000
815,-156.250000
816,-156.250000
817,-156.250000
818,-156.250000
819,-156.250000
820,-156.250000
821,-156.250000
822,-156.250000
823,-156.250000
824,-156.250000
825,-156.250000
826,-156.250000
827,-156.250000
828,-156.250000
829,-156.250000
830,-156.250000
831,-156.250000
832,-156.250000
833,-156.250000
834,-156.250000
835,-156.250000
836,-156.250000
837,-156.250000
838,-152.343750
839,-152.343750
840,-152.343750
841,-152.343750
842,-152.343750
843,-152.343750
844,-152.343750
845,-152.343750
846,-152.343750
847,-152.343750
848,-152.343750
849,-152.343750
850,-152.343750
851,-152.343750
852,-152.343750
853,-152.343750
854,-152.343750
855,-152.343750
856,-152.343750
857,-148.437500
858,-148.437500
859,-148.437500
860,-148.437500
861,-148.437500
862,-148.437500
863,-148.437500
864,-148.437500
865,-148.437500
866,-148.437500
867,-148.437500
868,-148.437500
869,-148.437500
870,-148.437500
871,-144.531250
872,-144.531250
873,-144.531250
874,-144.531250
875,-144.531250
876,-144.531250
877,-144.531250
878,-144.531250
879,-144.531250
880,-140.625000
881,-140.625000
882,-140.625000
883,-140.625000
884,-140.625000
885,-140.625000
886,-140.625000
887,-140.625000
888,-140.625000
889,-136.718750
890,-136.718750
891,-136.718750
892,-136.718750
893,-136.718750
894,-136.718750
895,-136.718750
896,-136.718750
897,-136.718750
898,-132.812500
899,-132.812500
900,-132.812500
901,-132.812500
902,-132.812500
903,-132.812500
904,-132.812500
905,-128.906250
906,-128.906250
907,-128.906250
908,-128.906250
909,-128.906250
910,-128.906250
911,-125.000000
912,-125.000000
913,-125.000000
914,-125.000000
915,-125.000000
916,-125.000000
917,-125.000000
918,-121.093750
919,-121.093750
920,-121.093750
921,-121.093750
922,-121.093750
923,-121.093750
924,-121.093750
925,-117.187500
926,-117.187500
927,-117.187500
928,-117.187500
929,-117.187500
930,-117.187500
931,-113.281250
932,-113.281250
933,-113.281250
934,-113.281250
935,-113.281250
936,-113.281250
937,-109.375000
938,-109.375000
939,-109.375000
940,-109.375000
941,-105.468750
942,-105.468750
943,-105.468750
944,-105.468750
945,-105.468750
946,-105.468750
947,-105.468750
948,-101.562500
949,-101.562500
950,-101.562500
951,-101.562500
952,-97.656250
953,-97.656250
954,-97.656250
955,-97.656250
956,-97.656250
957,-97.656250
958,-93.750000
959,-93.750000
960,-93.750000
961,-93.750000
962,-93.750000
963,-93.750000
964,-89.843750
965,-89.843750
966,-89.843750
967,-89.843750
968,-85.937500
969,-85.937500
970,-85.937500
971,-85.937500
972,-82.031250
973,-82.031250
974,-82.031250
975,-82.031250
976,-82.031250
977,-82.031250
978,-78.125000
979,-78.125000
980,-78.125000
981,-78.125000
982,-74.218750
983,-74.218750
984,-74.218750
985,-74.218750
986,-74.218750
987,-70.312500
988,-70.312500
989,-70.312500
990,-70.312500
991,-66.406250
992,-66.406250
993,-66.406250
994,-66.406250
995,-66.406250
996,-66.406250
997,-62.500000
998,-62.500000
999,-62.500000
1000,-58.593750
1001,-58.593750
1002,-58.593750
1003,-58.593750
1004,-58.593750
1005,-58.593750
1006,-54.687500
1007,-54.687500
1008,-54.687500
1009,-50.781250
1010,-50.781250
1011,-50.781250
1012,-50.781250
1013,-50.781250
1014,-50.781250
1015,-46.875000
1016,-46.875000
1017,-46.875000
1018,-42.968750
1019,-42.968750
1020,-42.968750
1021,-42.968750
1022,-42.968750
1023,-39.062500
1024,-39.062500
1025,-39.062500
1026,-39.062500
1027,-35.156250
1028,-35.156250
1029,-35.156250
1030,-35.156250
1031,-35.156250
1032,-31.250000
1033,-31.250000
1034,-31.250000
1035,-31.250000
1036,-27.343750
1037,-27.343750
1038,-27.343750
1039,-27.343750
1040,-23.437500
1041,-23.437500
1042,-23.437500
1043,-23.437500
1044,-23.437500
1045,-19.531250
1046,-19.531250
1047,-19.531250
1048,-19.531250
1049,-19.531250
1050,-15.625000
1051,-15.625000
1052,-15.625000
1053,-15.625000
1054,-11.718750
1055,-11.718750
1056,-11.718750
1057,-11.718750
1058,-7.812500
1059,-7.812500
1060,-7.812500
1061,-7.812500
1062,-7.812500
1063,-3.906250
1064,-3.906250
1065,-3.906250
1066,-3.906250
1067,0.000000
1068,0.000000
1069,0.000000
1070,0.000000
1071,3.906250
1072,3.906250
1073,3.906250
1074,3.906250
1075,3.906250
1076,7.812500
1077,7.812500
1078,7.812500
1079,7.812500
1080,7.812500
1081,11.718750
1082,11.718750
1083,11.718750
1084,11.718750
1085,11.718750
1086,15.625000
1087,15.625000
1088,15.625000
1089,15.625000
1090,19.531250
1091,15.625000
1092,19.531250
1093,19.531250
1094,19.531250
1095,23.437500
1096,23.437500
1097,23.437500
1098,23.437500
1099,27.343750
1100,27.343750
1101,27.343750
1102,27.343750
1103,27.343750
1104,27.343750
1105,31.250000
1106,31.250000
1107,31.250000
1108,31.250000
1109,35.156250
1110,35.156250
1111,35.156250
1112,35.156250
1113,35.156250
1114,39.062500
1115,39.062500
1116,39.062500
1117,39.062500
1118,39.062500
1119,39.062500
1120,42.968750
1121,42.968750
1122,42.968750
1123,42.968750
1124,42.968750
1125,46.875000
1126,46.875000
1127,46.875000
1128,46.875000
1129,46.875000
1130,50.781250
1131,50.781250
1132,50.781250
1133,50.781250
1134,50.781250
1135,50.781250
1136,54.687500
1137,54.687500
1138,54.687500
1139,54.687500
1140,54.687500
1141,58.593750
1142,58.593750
1143,58.593750
1144,58.593750
1145,58.593750
1146,62.500000
1147,62.500000
1148,62.500000
1149,62.500000
1150,62.500000
1151,62.500000
1152,62.500000
1153,66.406250
1154,66.406250
1155,66.406250
1156,66.406250
1157,66.406250
1158,66.406250
1159,70.312500
1160,70.312500
1161,70.312500
1162,70.312500
1163,70.312500
1164,70.312500
1165,74.218750
1166,74.218750
1167,74.218750
1168,74.218750
1169,74.218750
1170,74.218750
1171,78.125000
1172,78.125000
1173,78.125000
1174,78.125000
1175,78.125000
1176,78.125000
1177,78.125000
1178,78.125000
1179,82.031250
1180,82.031250
1181,82.031250
1182,82.031250
1183,82.031250
1184,82.031250
1185,82.031250
1186,85.937500
1187,85.937500
1188,85.937500
1189,85.937500
1190,85.937500
1191,85.937500
1192,85.937500
1193,89.843750
1194,89.843750
1195,89.843750
1196,89.843750
1197,89.843750
1198,89.843750
1199,89.843750
1200,93.750000
1201,89.843750
1202,93.750000
1203,93.750000
1204,93.750000
1205,93.750000
1206,93.750000
1207,93.750000
1208,93.750000
1209,93.750000
1210,93.750000
1211,97.656250
1212,97.656250
1213,97.656250
1214,97.656250
1215,97.656250
1216,97.656250
1217,97.656250
1218,101.562500
1219,101.562500
1220,101.562500
1221,101.562500
1222,101.562500
1223,101.562500
1224,101.562500
1225,101.562500
1226,101.562500
1227,101.562500
1228,101.562500
1229,101.562500
1230,105.468750
1231,105.468750
1232,105.468750
1233,105.468750
1234,105.468750
1235,105.468750
1236,105.468750
1237,105.468750
1238,105.468750
1239,105.468750
1240,109.375000
1241,105.468750
1242,105.468750
1243,109.375000
1244,109.375000
1245,109.375000
1246,109.375000
1247,109.375000
1248,109.375000
1249,109.375000
1250,109.375000
1251,109.375000
1252,109.375000
1253,109.375000
1254,109.375000
1255,109.375000
1256,113.281250
1257,109.375000
1258,113.281250
1259,113.281250
1260,113.281250
1261,113.281250
1262,113.281250
1263,113.281250
1264,113.281250
1265,113.281250
1266,113.281250
1267,113.281250
1268,113.281250
1269,113.281250
1270,113.281250
1271,113.281250
1272,113.281250
1273,113.281250
1274,113.281250
1275,113.281250
1276,113.281250
1277,113.281250
1278,117.187500
1279,117.187500
1280,117.187500
1281,117.187500
1282,117.187500
1283,117.187500
1284,117.187500
1285,117.187500
1286,117.187500
1287,117.187500
1288,117.187500
1289,117.187500
1290,117.187500
1291,117.187500
1292,117.187500
1293,117.187500
1294,117.187500
1295,117.187500
1296,117.187500
1297,117.187500
1298,117.187500
1299,117.187500
1300,117.187500
1301,117.187500
1302,117.187500
1303,117.187500
1304,117.187500
1305,117.187500
1306,117.187500
1307,117.187500
1308,117.187500
1309,117.187500
1310,117.187500
1311,117.187500
1312,117.187500
1313,117.187500
1314,117.187500
1315,117.187500
1316,117.187500
1317,117.187500
1318,117.187500
1319,117.187500
1320,117.187500
1321,117.187500
1322,117.187500
1323,117.187500
1324,117.187500
1325,117.187500
1326,117.187500
1327,117.187500
1328,117.187500
1329,117.187500
1330,117.187500
1331,117.187500
1332,117.187500
1333,117.187500
1334,117.187500
1335,117.187500
1336,117.187500
1337,117.187500
1338,117.187500
1339,117.187500
1340,117.187500
1341,117.187500
1342,117.187500
1343,113.281250
1344,113.281250
1345,113.281250
1346,113.281250
1347,113.281250
1348,113.281250
1349,113.281250
1350,113.281250
1351,113.281250
1352,113.281250
1353,113.281250
1354,113.281250
1355,113.281250
1356,113.281250
1357,113.281250
1358,113.281250
1359,113.281250
1360,113.281250
1361,113.281250
1362,109.375000
1363,109.375000
1364,109.375000
1365,109.375000
1366,109.375000
1367,109.375000
1368,109.375000
1369,109.375000
1370,109.375000
1371,109.375000
1372,109.375000
1373,109.375000
1374,109.375000
1375,109.375000
1376,109.375000
1377,109.375000
1378,109.375000
1379,105.468750
1380,105.468750
1381,105.468750
1382,105.468750
1383,105.468750
1384,105.468750
1385,105.468750
1386,105.468750
1387,105.468750
1388,105.468750
1389,101.562500
1390,101.562500
1391,101.562500
1392,101.562500
1393,101.562500
1394,101.562500
1395,101.562500
1396,101.562500
1397,101.562500
1398,101.562500
1399,101.562500
1400,97.656250
1401,97.656250
1402,97.656250
1403,97.656250
1404,97.656250
1405,97.656250
1406,97.656250
1407,97.656250
1408,93.750000
1409,97.656250
1410,93.750000
1411,93.750000
1412,93.750000
1413,93.750000
1414,93.750000
1415,93.750000
1416,93.750000
1417,89.843750
1418,89.843750
1419,89.843750
1420,89.843750
1421,89.843750
1422,89.843750
1423,89.843750
1424,89.843750
1425,85.937500
1426,85.937500
1427,85.937500
1428,85.937500
1429,85.937500
1430,85.937500
1431,85.937500
1432,85.937500
1433,82.031250
1434,82.031250
1435,82.031250
1436,82.031250
1437,82.031250
1438,82.031250
1439,82.031250
1440,82.031250
1441,78.125000
1442,78.125000
1443,78.125000
1444,78.125000
1445,78.125000
1446,78.125000
1447,74.218750
1448,74.218750
1449,74.218750
1450,74.218750
1451,74.218750
1452,74.218750
1453,74.218750
1454,70.312500
1455,70.312500
1456,70.312500
1457,70.312500
1458,70.312500
1459,66.406250
1460,70.312500
1461,66.406250
1462,66.406250
1463,66.406250
1464,66.406250
1465,66.406250
1466,62.500000
1467,62.500000
1468,62.500000
1469,62.500000
1470,62.500000
1471,62.500000
1472,58.593750
1473,58.593750
1474,58.593750
1475,58.593750
1476,58.593750
1477,54.687500
1478,54.687500
1479,54.687500
1480,54.687500
1481,54.687500
1482,54.687500
1483,50.781250
1484,50.781250
1485,50.781250
1486,50.781250
1487,50.781250
1488,46.875000
1489,50.781250
1490,46.875000
1491,46.875000
1492,46.875000
1493,46.875000
1494,42.968750
1495,42.968750
1496,42.968750
1497,42.968750
1498,42.968750
1499,39.062500
1500,39.062500
1501,39.062500
1502,39.062500
1503,35.156250
1504,35.156250
1505,35.156250
1506,35.156250
1507,35.156250
1508,35.156250
1509,31.250000
1510,31.250000
1511,31.250000
1512,31.250000
1513,27.343750
1514,27.343750
1515,27.343750
1516,27.343750
1517,27.343750
1518,27.343750
1519,23.437500
1520,23.437500
1521,23.437500
1522,23.437500
1523,19.531250
1524,19.531250
1525,19.531250
1526,19.531250
1527,19.531250
1528,15.625000
1529,15.625000
1530,15.625000
1531,15.625000
1532,11.718750
1533,11.718750
1534,11.718750
1535,11.718750
1536,7.812500
1537,7.812500
1538,7.812500
1539,7.812500
1540,7.812500
1541,7.812500
1542,3.906250
1543,3.906250
1544,3.906250
1545,0.000000
1546,0.000000
1547,0.000000
1548,0.000000
1549,0.000000
1550,-3.906250
1551,-3.906250
1552,-3.906250
1553,-3.906250
1554,-3.906250
1555,-7.812500
1556,-7.812500
1557,-7.812500
1558,-7.812500
1559,-11.718750
1560,-11.718750
1561,-11.718750
1562,-11.718750
1563,-15.625000
1564,-15.625000
1565,-15.625000
1566,-15.625000
1567,-19.531250
1568,-19.531250
1569,-19.531250
1570,-19.531250
1571,-19.531250
1572,-23.437500
1573,-23.437500
1574,-23.437500
1575,-23.437500
1576,-27.343750
1577,-27.343750
1578,-27.343750
1579,-27.343750
1580,-27.343750
1581,-31.250000
1582,-31.250000
1583,-31.250000
1584,-31.250000
1585,-35.156250
1586,-35.156250
1587,-35.156250
1588,-35.156250
1589,-35.156250
1590,-39.062500
1591,-39.062500
1592,-39.062500
1593,-42.968750
1594,-42.968750
1595,-42.968750
1596,-42.968750
1597,-42.968750
1598,-46.875000
1599,-46.875000
1600,-46.875000
1601,-46.875000
1602,-50.781250
1603,-50.781250
1604,-50.781250
1605,-50.781250
1606,-54.687500
1607,-54.687500
1608,-54.687500
1609,-54.687500
1610,-54.687500
1611,-58.593750
1612,-58.593750
1613,-58.593750
1614,-58.593750
1615,-62.500000
1616,-62.500000
1617,-62.500000
1618,-62.500000
1619,-62.500000
1620,-66.406250
1621,-66.406250
1622,-66.406250
1623,-66.406250
1624,-70.312500
1625,-70.312500
1626,-70.312500
1627,-70.312500
1628,-70.312500
1629,-74.218750
1630,-74.218750
1631,-74.218750
1632,-74.218750
1633,-78.125000
1634,-78.125000
1635,-78.125000
1636,-78.125000
1637,-78.125000
1638,-78.125000
1639,-82.031250
1640,-82.031250
1641,-82.031250
1642,-82.031250
1643,-85.937500
1644,-85.937500
1645,-85.937500
1646,-85.937500
1647,-85.937500
1648,-89.843750
1649,-89.843750
1650,-89.843750
1651,-89.843750
1652,-89.843750
1653,-93.750000
1654,-93.750000
1655,-93.750000
1656,-93.750000
1657,-93.750000
1658,-93.750000
1659,-97.656250
1660,-97.656250
1661,-97.656250
1662,-97.656250
1663,-97.656250
1664,-101.562500
1665,-101.562500
1666,-101.562500
1667,-101.562500
1668,-101.562500
1669,-105.468750
1670,-105.468750
1671,-105.468750
1672,-105.468750
1673,-105.468750
1674,-109.375000
1675,-109.375000
1676,-109.375000
1677,-109.375000
1678,-109.375000
1679,-109.375000
1680,-113.281250
1681,-113.281250
1682,-113.281250
1683,-113.281250
1684,-117.187500
1685,-117.187500
1686,-117.187500
1687,-117.187500
1688,-117.187500
1689,-117.187500
1690,-117.187500
1691,-117.187500
1692,-121.093750
1693,-121.093750
1694,-121.093750
1695,-121.093750
1696,-121.093750
1697,-125.000000
1698,-125.000000
1699,-125.000000
1700,-125.000000
1701,-125.000000
1702,-125.000000
1703,-128.906250
1704,-128.906250
1705,-128.906250
1706,-128.906250
1707,-128.906250
1708,-128.906250
1709,-128.906250
1710,-128.906250
1711,-132.812500
1712,-132.812500
1713,-132.812500
1714,-132.812500
1715,-132.812500
1716,-132.812500
1717,-132.812500
1718,-132.812500
1719,-132.812500
1720,-136.718750
1721,-136.718750
1722,-136.718750
1723,-136.718750
1724,-136.718750
1725,-136.718750
1726,-136.718750
1727,-140.625000
1728,-140.625000
1729,-140.625000
1730,-140.625000
1731,-140.625000
1732,-140.625000
1733,-140.625000
1734,-140.625000
1735,-144.531250
1736,-144.531250
1737,-144.531250
1738,-144.531250
1739,-144.531250
1740,-144.531250
1741,-144.531250
1742,-144.531250
1743,-144.531250
1744,-144.531250
1745,-148.437500
1746,-148.437500
1747,-148.437500
1748,-148.437500
1749,-148.437500
1750,-148.437500
1751,-148.437500
1752,-148.437500
1753,-148.437500
1754,-148.437500
1755,-148.437500
1756,-148.437500
1757,-152.343750
1758,-152.343750
1759,-152.343750
1760,-152.343750
1761,-152.343750
1762,-152.343750
1763,-152.343750
1764,-152.343750
1765,-152.343750
1766,-152.343750
1767,-152.343750
1768,-152.343750
1769,-152.343750
1770,-152.343750
1771,-152.343750
1772,-152.343750
1773,-152.343750
1774,-156.250000
1775,-156.250000
1776,-156.250000
1777,-156.250000
1778,-156.250000
1779,-156.250000
1780,-156.250000
1781,-156.250000
1782,-156.250000
1783,-156.250000
1784,-156.250000
1785,-156.250000
1786,-156.250000
1787,-156.250000
1788,-156.250000
1789,-156.250000
1790,-156.250000
1791,-156.250000
1792,-156.250000
1793,-156.250000
1794,-156.250000
1795,-156.250000
1796,-156.250000
1797,-156.250000
1798,-156.250000
1799,-156.250000
1800,-156.250000
1801,-156.250000
1802,-156.250000
1803,-156.250000
1804,-156.250000
1805,-156.250000
1806,-156.250000
1807,-156.250000
1808,-156.250000
1809,-156.250000
1810,-156.250000
1811,-156.250000
1812,-156.250000
1813,-156.250000
1814,-156.250000
1815,-156.250000
1816,-156.250000
1817,-156.250000
1818,-156.250000
1819,-156.250000
1820,-156.250000
1821,-156.250000
1822,-156.250000
1823,-156.250000
1824,-156.250000
1825,-156.250000
1826,-156.250000
1827,-156.250000
1828,-156.250000
1829,-156.250000
1830,-156.250000
1831,-152.343750
1832,-152.343750
1833,-152.343750
1834,-152.343750
1835,-152.343750
1836,-152.343750
1837,-152.343750
1838,-152.343750
1839,-152.343750
1840,-152.343750
1841,-152.343750
1842,-152.343750
1843,-152.343750
1844,-152.343750
1845,-152.343750
1846,-152.343750
1847,-152.343750
1848,-152.343750
1849,-148.437500
1850,-148.437500
1851,-148.437500
1852,-148.437500
1853,-148.437500
1854,-148.437500
1855,-148.437500
1856,-148.437500
1857,-148.437500
1858,-148.437500
1859,-148.437500
1860,-148.437500
1861,-144.531250
1862,-144.531250
1863,-144.531250
1864,-144.531250
1865,-144.531250
1866,-144.531250
1867,-144.531250
1868,-144.531250
1869,-144.531250
1870,-144.531250
1871,-140.625000
1872,-140.625000
1873,-140.625000
1874,-140.625000
1875,-140.625000
1876,-140.625000
1877,-140.625000
1878,-140.625000
1879,-136.718750
1880,-136.718750
1881,-136.718750
1882,-136.718750
1883,-136.718750
1884,-136.718750
1885,-136.718750
1886,-136.718750
1887,-136.718750
1888,-132.812500
1889,-132.812500
1890,-132.812500
1891,-132.812500
1892,-132.812500
1893,-132.812500
1894,-132.812500
1895,-132.812500
1896,-128.906250
1897,-128.906250
1898,-128.906250
1899,-128.906250
1900,-128.906250
1901,-128.906250
1902,-125.000000
1903,-125.000000
1904,-125.000000
1905,-125.000000
1906,-125.000000
1907,-125.000000
1908,-121.093750
1909,-121.093750
1910,-121.093750
1911,-121.093750
1912,-121.093750
1913,-121.093750
1914,-121.093750
1915,-121.093750
1916,-117.187500
1917,-117.187500
1918,-117.187500
1919,-117.187500
1920,-117.187500
1921,-113.281250
1922,-113.281250
1923,-113.281250
1924,-113.281250
1925,-113.281250
1926,-113.281250
1927,-113.281250
1928,-109.375000
1929,-109.375000
1930,-109.375000
1931,-109.375000
1932,-105.468750
1933,-105.468750
1934,-105.468750
1935,-105.468750
1936,-105.468750
1937,-105.468750
1938,-101.562500
1939,-101.562500
1940,-101.562500
1941,-101.562500
1942,-101.562500
1943,-97.656250
1944,-97.656250
1945,-97.656250
1946,-97.656250
1947,-97.656250
1948,-93.750000
1949,-93.750000
1950,-93.750000
1951,-93.750000
1952,-93.750000
1953,-93.750000
1954,-89.843750
1955,-89.843750
1956,-89.843750
1957,-89.843750
1958,-85.937500
1959,-85.937500
1960,-85.937500
1961,-85.937500
1962,-82.031250
1963,-82.031250
1964,-82.031250
1965,-82.031250
1966,-82.031250
1967,-82.031250
1968,-78.125000
1969,-78.125000
1970,-78.125000
1971,-78.125000
1972,-78.125000
1973,-74.218750
1974,-74.218750
1975,-74.218750
1976,-74.218750
1977,-70.312500
1978,-70.312500
1979,-70.312500
1980,-70.312500
1981,-70.312500
1982,-66.406250
1983,-66.406250
1984,-66.406250
1985,-66.406250
1986,-66.406250
1987,-62.500000
1988,-62.500000
1989,-62.500000
1990,-58.593750
1991,-58.593750
1992,-58.593750
1993,-58.593750
1994,-58.593750
1995,-54.687500
1996,-54.687500
1997,-54.687500
1998,-54.687500
1999,-54.687500
2000,-50.781250
2001,-50.781250
2002,-50.781250
2003,-50.781250
2004,-46.875000
2005,-46.875000
2006,-46.875000
2007,-46.875000
2008,-46.875000
2009,-42.968750
2010,-42.968750
2011,-42.968750
2012,-42.968750
2013,-39.062500
2014,-39.062500
2015,-39.062500
2016,-39.062500
2017,-39.062500
2018,-35.156250
2019,-35.156250
2020,-35.156250
2021,-35.156250
2022,-31.250000
2023,-31.250000
2024,-31.250000
2025,-31.250000
2026,-27.343750
2027,-27.343750
2028,-27.343750
2029,-27.343750
2030,-27.343750
2031,-23.437500
2032,-23.437500
2033,-23.437500
2034,-19.531250
2035,-19.531250
2036,-19.531250
2037,-19.531250
2038,-19.531250
2039,-15.625000
2040,-15.625000
2041,-15.625000
2042,-15.625000
2043,-15.625000
2044,-11.718750
2045,-11.718750
2046,-11.718750
2047,-11.718750
2048,-7.812500
2049,-7.812500
2050,-7.812500
2051,-7.812500
2052,-7.812500
2053,-3.906250
2054,-3.906250
2055,-3.906250
2056,-3.906250
2057,0.000000
2058,0.000000
2059,0.000000
2060,0.000000
2061,0.000000
2062,3.906250
2063,3.906250
2064,3.906250
2065,3.906250
2066,7.812500
2067,7.812500
2068,7.812500
2069,7.812500
2070,7.812500
2071,11.718750
2072,11.718750
2073,11.718750
2074,11.718750
2075,15.625000
2076,15.625000
2077,15.625000
2078,15.625000
2079,15.625000
2080,15.625000
2081,19.531250
2082,19.531250
2083,19.531250
2084,19.531250
2085,23.437500
2086,23.437500
2087,23.437500
2088,23.437500
2089,23.437500
2090,27.343750
2091,27.343750
2092,27.343750
2093,27.343750
2094,31.250000
2095,31.250000
2096,31.250000
2097,31.250000
2098,31.250000
2099,35.156250
2100,35.156250
2101,35.156250
2102,35.156250
2103,35.156250
2104,39.062500
2105,39.062500
2106,39.062500
2107,39.062500
2108,42.968750
2109,42.968750
2110,42.968750
2111,42.968750
2112,42.968750
2113,42.968750
2114,46.875000
2115,46.875000
2116,46.875000
2117,46.875000
2118,46.875000
2119,46.875000
2120,50.781250
2121,50.781250
2122,50.781250
2123,50.781250
2124,54.687500
2125,54.687500
2126,54.687500
2127,54.687500
2128,54.687500
2129,54.687500
2130,54.687500
2131,58.593750
2132,58.593750
2133,58.593750
2134,58.593750
2135,58.593750
2136,62.500000
2137,62.500000
2138,62.500000
2139,62.500000
2140,62.500000
2141,62.500000
2142,66.406250
2143,66.406250
2144,66.406250
2145,66.406250
2146,66.406250
2147,70.312500
2148,70.312500
2149,70.312500
2150,70.312500
2151,70.312500
2152,70.312500
2153,70.312500
2154,70.312500
2155,74.218750
2156,74.218750
2157,74.218750
2158,74.218750
2159,74.218750
2160,78.125000
2161,78.125000
2162,78.125000
2163,78.125000
2164,78.125000
2165,78.125000
2166,78.125000
2167,82.031250
2168,82.031250
2169,82.031250
2170,82.031250
2171,82.031250
2172,82.031250
2173,82.031250
2174,82.031250
2175,85.937500
2176,85.937500
2177,85.937500
2178,85.937500
2179,85.937500
2180,85.937500
2181,85.937500
2182,85.937500
2183,89.843750
2184,89.843750
2185,89.843750
2186,89.843750
2187,89.843750
2188,89.843750
2189,93.750000
2190,89.843750
2191,89.843750
2192,93.750000
2193,93.750000
2194,93.750000
2195,93.750000
2196,93.750000
2197,93.750000
2198,93.750000
2199,97.656250
2200,97.656250
2201,97.656250
2202,97.656250
2203,97.656250
2204,97.656250
2205,97.656250
2206,97.656250
2207,97.656250
2208,101.562500
2209,101.562500
2210,101.562500
2211,101.562500
2212,101.562500
2213,101.562500
2214,101.562500
2215,101.562500
2216,101.562500
2217,101.562500
2218,105.468750
2219,105.468750
2220,105.468750
2221,105.468750
2222,105.468750
2223,105.468750
2224,105.468750
2225,105.468750
2226,105.468750
2227,105.468750
2228,105.468750
2229,109.375000
2230,105.468750
2231,109.375000
2232,109.375000
2233,109.375000
2234,109.375000
2235,109.375000
2236,109.375000
2237,109.375000
2238,109.375000
2239,109.375000
2240,109.375000
2241,109.375000
2242,109.375000
2243,109.375000
2244,109.375000
2245,113.281250
2246,109.375000
2247,113.281250
2248,113.281250
2249,113.281250
2250,113.281250
2251,113.281250
2252,113.281250
2253,113.281250
2254,113.281250
2255,113.281250
2256,113.281250
2257,113.281250
2258,113.281250
2259,113.281250
2260,113.281250
2261,113.281250
2262,113.281250
2263,117.187500
2264,117.187500
2265,113.281250
2266,113.281250
2267,117.187500
2268,117.187500
2269,117.187500
2270,117.187500
2271,117.187500
2272,117.187500
2273,117.187500
2274,117.187500
2275,117.187500
2276,117.187500
2277,117.187500
2278,117.187500
2279,117.187500
2280,117.187500
2281,117.187500
2282,117.187500
2283,117.187500
2284,117.187500
2285,117.187500
2286,117.187500
2287,117.187500
2288,117.187500
2289,117.187500
2290,117.187500
2291,117.187500
2292,117.187500
2293,117.187500
2294,117.187500
2295,117.187500
2296,117.187500
2297,117.187500
2298,117.187500
2299,117.187500
2300,117.187500
2301,117.187500
2302,117.187500
2303,117.187500
2304,117.187500
2305,117.187500
2306,117.187500
2307,117.187500
2308,117.187500
2309,117.187500
2310,117.187500
2311,117.187500
2312,117.187500
2313,117.187500
2314,117.187500
2315,117.187500
2316,117.187500
2317,117.187500
2318,117.187500
2319,117.187500
2320,117.187500
2321,117.187500
2322,117.187500
2323,117.187500
2324,117.187500
2325,117.187500
2326,117.187500
2327,117.187500
2328,117.187500
2329,117.187500
2330,117.187500
2331,113.281250
2332,113.281250
2333,113.281250
2334,113.281250
2335,113.281250
2336,113.281250
2337,113.281250
2338,113.281250
2339,113.281250
2340,113.281250
2341,113.281250
2342,113.281250
2343,113.281250
2344,113.281250
2345,113.281250
2346,113.281250
2347,113.281250
2348,113.281250
2349,113.281250
2350,113.281250
2351,113.281250
2352,113.281250
2353,109.375000
2354,109.375000
2355,109.375000
2356,109.375000
2357,109.375000
2358,109.375000
2359,109.375000
2360,109.375000
2361,109.375000
2362,109.375000
2363,109.375000
2364,109.375000
2365,109.375000
2366,109.375000
2367,109.375000
2368,109.375000
2369,105.468750
2370,105.468750
2371,105.468750
2372,105.468750
2373,105.468750
2374,105.468750
2375,105.468750
2376,105.468750
2377,105.468750
2378,105.468750
2379,105.468750
2380,105.468750
2381,101.562500
2382,101.562500
2383,101.562500
2384,101.562500
2385,101.562500
2386,101.562500
2387,101.562500
2388,101.562500
2389,101.562500
2390,97.656250
2391,101.562500
2392,97.656250
2393,97.656250
2394,97.656250
2395,97.656250
2396,97.656250
2397,97.656250
2398,97.656250
2399,97.656250
2400,97.656250
2401,93.750000
2402,93.750000
2403,93.750000
2404,93.750000
2405,93.750000
2406,93.750000
2407,93.750000
2408,89.843750
2409,89.843750
2410,89.843750
2411,89.843750
2412,89.843750
2413,89.843750
2414,89.843750
2415,89.843750
2416,85.937500
2417,85.937500
2418,85.937500
2419,85.937500
2420,85.937500
2421,85.937500
2422,85.937500
2423,85.937500
2424,82.031250
2425,82.031250
2426,82.031250
2427,82.031250
2428,82.031250
2429,82.031250
2430,78.125000
2431,82.031250
2432,78.125000
2433,78.125000
2434,78.125000
2435,78.125000
2436,78.125000
2437,74.218750
2438,74.218750
2439,74.218750
2440,74.218750
2441,74.218750
2442,74.218750
2443,74.218750
2444,70.312500
2445,70.312500
2446,70.312500
2447,70.312500
2448,70.312500
2449,70.312500
2450,66.406250
2451,66.406250
2452,66.406250
2453,66.406250
2454,66.406250
2455,66.406250
2456,62.500000
2457,62.500000
2458,62.500000
2459,62.500000
2460,62.500000
2461,62.500000
2462,58.593750
2463,58.593750
2464,58.593750
2465,58.593750
2466,58.593750
2467,58.593750
2468,54.687500
2469,54.687500
2470,54.687500
2471,54.687500
2472,54.687500
2473,54.687500
2474,50.781250
2475,50.781250
2476,50.781250
2477,50.781250
2478,46.875000
2479,46.875000
2480,46.875000
2481,46.875000
2482,46.875000
2483,42.968750
2484,42.968750
2485,42.968750
2486,42.968750
2487,42.968750
2488,39.062500
2489,39.062500
2490,39.062500
2491,39.062500
2492,39.062500
2493,39.062500
2494,35.156250
2495,35.156250
2496,35.156250
2497,35.156250
2498,35.156250
2499,31.250000
2500,31.250000
2501,31.250000
2502,31.250000
2503,31.250000
2504,27.343750
2505,27.343750
2506,27.343750
2507,27.343750
2508,23.437500
2509,23.437500
2510,23.437500
2511,23.437500
2512,23.437500
2513,23.437500
2514,19.531250
2515,19.531250
2516,19.531250
2517,15.625000
2518,15.625000
2519,15.625000
2520,15.625000
2521,15.625000
2522,15.625000
2523,11.718750
2524,11.718750
2525,11.718750
2526,11.718750
2527,7.812500
2528,7.812500
2529,7.812500
2530,7.812500
2531,7.812500
2532,3.906250
2533,3.906250
2534,3.906250
2535,3.906250
2536,0.000000
2537,0.000000
2538,0.000000
2539,0.000000
2540,0.000000
2541,-3.906250
2542,-3.906250
2543,-3.906250
2544,-7.812500
2545,-7.812500
2546,-7.812500
2547,-7.812500
2548,-7.812500
2549,-11.718750
2550,-11.718750
2551,-11.718750
2552,-11.718750
2553,-11.718750
2554,-15.625000
2555,-15.625000
2556,-15.625000
2557,-15.625000
2558,-19.531250
2559,-19.531250
2560,-19.531250
2561,-19.531250
2562,-23.437500
2563,-23.437500
2564,-23.437500
2565,-23.437500
2566,-23.437500
2567,-27.343750
2568,-27.343750
2569,-27.343750
2570,-27.343750
2571,-31.250000
2572,-31.250000
2573,-31.250000
2574,-31.250000
2575,-35.156250
2576,-35.156250
2577,-35.156250
2578,-35.156250
2579,-39.062500
2580,-39.062500
2581,-39.062500
2582,-39.062500
2583,-39.062500
2584,-42.968750
2585,-42.968750
2586,-42.968750
2587,-42.968750
2588,-46.875000
2589,-46.875000
2590,-46.875000
2591,-46.875000
2592,-50.781250
2593,-50.781250
2594,-50.781250
2595,-50.781250
2596,-50.781250
2597,-54.687500
2598,-54.687500
2599,-54.687500
2600,-54.687500
2601,-58.593750
2602,-58.593750
2603,-58.593750
2604,-58.593750
2605,-62.500000
2606,-62.500000
2607,-62.500000
2608,-62.500000
2609,-62.500000
2610,-62.500000
2611,-66.406250
2612,-66.406250
2613,-66.406250
2614,-66.406250
2615,-70.312500
2616,-70.312500
2617,-70.312500
2618,-70.312500
2619,-74.218750
2620,-74.218750
2621,-74.218750
2622,-74.218750
2623,-78.125000
2624,-78.125000
2625,-78.125000
2626,-78.125000
2627,-78.125000
2628,-82.031250
2629,-82.031250
2630,-82.031250
2631,-82.031250
2632,-82.031250
2633,-85.937500
2634,-85.937500
2635,-85.937500
2636,-85.937500
2637,-85.937500
2638,-85.937500
2639,-89.843750
2640,-89.843750
2641,-89.843750
2642,-89.843750
2643,-93.750000
2644,-93.750000
2645,-93.750000
2646,-93.750000
2647,-93.750000
2648,-93.750000
2649,-97.656250
2650,-97.656250
2651,-97.656250
2652,-97.656250
2653,-101.562500
2654,-101.562500
2655,-101.562500
2656,-101.562500
2657,-101.562500
2658,-101.562500
2659,-105.468750
2660,-105.468750
2661,-105.468750
2662,-105.468750
2663,-109.375000
2664,-109.375000
2665,-109.375000
2666,-109.375000
2667,-109.375000
2668,-109.375000
2669,-113.281250
2670,-113.281250
2671,-113.281250
2672,-113.281250
2673,-113.281250
2674,-113.281250
2675,-117.187500
2676,-117.187500
2677,-117.187500
2678,-117.187500
2679,-117.187500
2680,-121.093750
2681,-121.093750
2682,-121.093750
2683,-121.093750
2684,-121.093750
2685,-121.093750
2686,-121.093750
2687,-121.093750
2688,-125.000000
2689,-125.000000
2690,-125.000000
2691,-125.000000
2692,-125.000000
2693,-128.906250
2694,-128.906250
2695,-128.906250
2696,-128.906250
2697,-128.906250
2698,-128.906250
2699,-132.812500
2700,-132.812500
2701,-132.812500
2702,-132.812500
2703,-132.812500
2704,-132.812500
2705,-132.812500
2706,-132.812500
2707,-136.718750
2708,-132.812500
2709,-136.718750
2710,-136.718750
2711,-136.718750
2712,-136.718750
2713,-136.718750
2714,-140.625000
2715,-136.718750
2716,-136.718750
2717,-140.625000
2718,-140.625000
2719,-140.625000
2720,-140.625000
2721,-140.625000
2722,-140.625000
2723,-140.625000
2724,-144.531250
2725,-144.531250
2726,-144.531250
2727,-144.531250
2728,-144.531250
2729,-144.531250
2730,-144.531250
2731,-144.531250
2732,-144.531250
2733,-148.437500
2734,-148.437500
2735,-144.531250
2736,-148.437500
2737,-148.437500
2738,-148.437500
2739,-148.437500
2740,-148.437500
2741,-148.437500
2742,-148.437500
2743,-148.437500
2744,-148.437500
2745,-148.437500
2746,-148.437500
2747,-148.437500
2748,-152.343750
2749,-152.343750
2750,-152.343750
2751,-152.343750
2752,-152.343750
2753,-152.343750
2754,-152.343750
2755,-152.343750
2756,-152.343750
2757,-152.343750
2758,-152.343750
2759,-152.343750
2760,-156.250000
2761,-156.250000
2762,-152.343750
2763,-156.250000
2764,-156.250000
2765,-156.250000
2766,-152.343750
2767,-156.250000
2768,-156.250000
2769,-156.250000
2770,-156.250000
2771,-156.250000
2772,-156.250000
2773,-156.250000
2774,-156.250000
2775,-156.250000
2776,-156.250000
2777,-156.250000
2778,-156.250000
2779,-156.250000
2780,-156.250000
2781,-156.250000
2782,-156.250000
2783,-156.250000
2784,-156.250000
2785,-156.250000
2786,-156.250000
2787,-156.250000
2788,-156.250000
2789,-156.250000
2790,-156.250000
2791,-156.250000
2792,-156.250000
2793,-156.250000
2794,-156.250000
2795,-156.250000
2796,-156.250000
2797,-156.250000
2798,-156.250000
2799,-156.250000
2800,-156.250000
2801,-156.250000
2802,-156.250000
2803,-156.250000
2804,-156.250000
2805,-156.250000
2806,-156.250000
2807,-156.250000
2808,-156.250000
2809,-156.250000
2810,-156.250000
2811,-156.250000
2812,-156.250000
2813,-156.250000
2814,-156.250000
2815,-156.250000
2816,-156.250000
2817,-156.250000
2818,-156.250000
2819,-156.250000
2820,-152.343750
2821,-152.343750
2822,-156.250000
2823,-152.343750
2824,-152.343750
2825,-152.343750
2826,-152.343750
2827,-152.343750
2828,-152.343750
2829,-152.343750
2830,-152.343750
2831,-152.343750
2832,-152.343750
2833,-152.343750
2834,-152.343750
2835,-152.343750
2836,-152.343750
2837,-152.343750
2838,-152.343750
2839,-148.437500
2840,-148.437500
2841,-148.437500
2842,-148.437500
2843,-148.437500
2844,-148.437500
2845,-148.437500
2846,-148.437500
2847,-148.437500
2848,-148.437500
2849,-148.437500
2850,-144.531250
2851,-144.531250
2852,-144.531250
2853,-144.531250
2854,-144.531250
2855,-144.531250
2856,-144.531250
2857,-144.531250
2858,-144.531250
2859,-144.531250
2860,-144.531250
2861,-140.625000
2862,-140.625000
2863,-140.625000
2864,-140.625000
2865,-140.625000
2866,-140.625000
2867,-140.625000
2868,-140.625000
2869,-136.718750
2870,-136.718750
2871,-136.718750
2872,-136.718750
2873,-136.718750
2874,-136.718750
2875,-136.718750
2876,-136.718750
2877,-132.812500
2878,-132.812500
2879,-132.812500
2880,-132.812500
2881,-132.812500
2882,-132.812500
2883,-132.812500
2884,-128.906250
2885,-128.906250
2886,-128.906250
2887,-128.906250
2888,-128.906250
2889,-125.000000
2890,-128.906250
2891,-125.000000
2892,-125.000000
2893,-125.000000
2894,-125.000000
2895,-125.000000
2896,-125.000000
2897,-125.000000
2898,-125.000000
2899,-121.093750
2900,-121.093750
2901,-121.093750
2902,-121.093750
2903,-117.187500
2904,-121.093750
2905,-117.187500
2906,-117.187500
2907,-117.187500
2908,-117.187500
2909,-117.187500
2910,-113.281250
2911,-113.281250
2912,-113.281250
2913,-113.281250
2914,-113.281250
2915,-113.281250
2916,-109.375000
2917,-109.375000
2918,-109.375000
2919,-109.375000
2920,-109.375000
2921,-109.375000
2922,-105.468750
2923,-105.468750
2924,-105.468750
2925,-105.468750
2926,-105.468750
2927,-105.468750
2928,-101.562500
2929,-101.562500
2930,-101.562500
2931,-101.562500
2932,-97.656250
2933,-97.656250
2934,-97.656250
2935,-97.656250
2936,-97.656250
2937,-97.656250
2938,-93.750000
2939,-93.750000
2940,-93.750000
2941,-93.750000
2942,-89.843750
2943,-89.843750
2944,-89.843750
2945,-89.843750
2946,-89.843750
2947,-89.843750
2948,-85.937500
2949,-85.937500
2950,-85.937500
2951,-85.937500
2952,-85.937500
2953,-82.031250
2954,-82.031250
2955,-82.031250
2956,-82.031250
2957,-78.125000
2958,-82.031250
2959,-78.125000
2960,-78.125000
2961,-78.125000
2962,-74.218750
2963,-74.218750
2964,-74.218750
2965,-74.218750
2966,-74.218750
2967,-70.312500
2968,-70.312500
2969,-70.312500
2970,-70.312500
2971,-66.406250
2972,-66.406250
2973,-66.406250
2974,-66.406250
2975,-66.406250
2976,-62.500000
2977,-62.500000
2978,-62.500000
2979,-62.500000
2980,-62.500000
2981,-58.593750
2982,-58.593750
2983,-58.593750
2984,-58.593750
2985,-54.687500
2986,-54.687500
2987,-54.687500
2988,-54.687500
2989,-50.781250
2990,-50.781250
2991,-50.781250
2992,-50.781250
2993,-50.781250
2994,-50.781250
2995,-46.875000
2996,-46.875000
2997,-46.875000
2998,-42.968750
2999,-42.968750
3000,-42.968750
3001,-42.968750
3002,-39.062500
3003,-39.062500
3004,-39.062500
3005,-39.062500
3006,-39.062500
3007,-35.156250
3008,-39.062500
3009,-35.156250
3010,-35.156250
3011,-31.250000
3012,-31.250000
3013,-31.250000
3014,-31.250000
3015,-31.250000
3016,-27.343750
3017,-27.343750
3018,-27.343750
3019,-23.437500
3020,-23.437500
3021,-23.437500
3022,-23.437500
3023,-23.437500
3024,-23.437500
3025,-19.531250
3026,-19.531250
3027,-19.531250
3028,-15.625000
3029,-15.625000
3030,-15.625000
3031,-15.625000
3032,-15.625000
3033,-11.718750
3034,-11.718750
3035,-11.718750
3036,-11.718750
3037,-7.812500
3038,-7.812500
3039,-7.812500
3040,-7.812500
3041,-7.812500
3042,-3.906250
3043,-3.906250
3044,-3.906250
3045,-3.906250
3046,-3.906250
3047,0.000000
3048,0.000000
3049,0.000000
3050,0.000000
3051,3.906250
3052,3.906250
3053,3.906250
3054,3.906250
3055,3.906250
3056,7.812500
3057,7.812500
3058,7.812500
3059,11.718750
3060,11.718750
3061,7.812500
3062,11.718750
3063,11.718750
3064,11.718750
3065,15.625000
3066,15.625000
3067,15.625000
3068,15.625000
3069,15.625000
3070,19.531250
3071,19.531250
3072,19.531250
3073,19.531250
3074,23.437500
3075,23.437500
3076,23.437500
3077,23.437500
3078,23.437500
3079,27.343750
3080,27.343750
3081,27.343750
3082,27.343750
3083,27.343750
3084,31.250000
3085,31.250000
3086,31.250000
3087,31.250000
3088,35.156250
3089,35.156250
3090,35.156250
3091,35.156250
3092,35.156250
3093,35.156250
3094,39.062500
3095,39.062500
3096,42.968750
3097,39.062500
3098,42.968750
3099,39.062500
3100,42.968750
3101,42.968750
3102,42.968750
3103,42.968750
3104,46.875000
3105,46.875000
3106,46.875000
3107,46.875000
3108,46.875000
3109,46.875000
3110,50.781250
3111,50.781250
3112,50.781250
3113,50.781250
3114,54.687500
3115,54.687500
3116,54.687500
3117,54.687500
3118,54.687500
3119,54.687500
3120,58.593750
3121,58.593750
3122,58.593750
3123,58.593750
3124,58.593750
3125,58.593750
3126,62.500000
3127,62.500000
3128,62.500000
3129,62.500000
3130,62.500000
3131,62.500000
3132,66.406250
3133,66.406250
3134,66.406250
3135,66.406250
3136,66.406250
3137,70.312500
3138,70.312500
3139,70.312500
3140,70.312500
3141,70.312500
3142,70.312500
3143,74.218750
3144,74.218750
3145,74.218750
3146,74.218750
3147,74.218750
3148,74.218750
3149,74.218750
3150,78.125000
3151,78.125000
3152,78.125000
3153,78.125000
3154,78.125000
3155,78.125000
3156,82.031250
3157,78.125000
3158,82.031250
3159,82.031250
3160,82.031250
3161,82.031250
3162,82.031250
3163,82.031250
3164,82.031250
3165,85.937500
3166,85.937500
3167,85.937500
3168,85.937500
3169,85.937500
3170,85.937500
3171,89.843750
3172,89.843750
3173,89.843750
3174,89.843750
3175,89.843750
3176,89.843750
3177,89.843750
3178,89.843750
3179,89.843750
3180,89.843750
3181,93.750000
3182,93.750000
3183,93.750000
3184,93.750000
3185,93.750000
3186,93.750000
3187,93.750000
3188,97.656250
3189,93.750000
3190,97.656250
3191,97.656250
3192,97.656250
3193,97.656250
3194,97.656250
3195,97.656250
3196,101.562500
3197,97.656250
3198,101.562500
3199,97.656250
3200,101.562500
3201,101.562500
3202,101.562500
3203,101.562500
3204,101.562500
3205,101.562500
3206,105.468750
3207,101.562500
3208,101.562500
3209,101.562500
3210,101.562500
3211,105.468750
3212,105.468750
3213,105.468750
3214,105.468750
3215,105.468750
3216,105.468750
3217,105.468750
3218,105.468750
3219,105.468750
3220,105.468750
3221,109.375000
3222,109.375000
3223,109.375000
3224,109.375000
3225,109.375000
3226,109.375000
3227,109.375000
3228,109.375000
3229,109.375000
3230,109.375000
3231,109.375000
3232,109.375000
3233,109.375000
3234,113.281250
3235,113.281250
3236,113.281250
3237,113.281250
3238,113.281250
3239,113.281250
3240,113.281250
3241,113.281250
3242,113.281250
3243,113.281250
3244,113.281250
3245,113.281250
3246,113.281250
3247,113.281250
3248,113.281250
3249,113.281250
3250,113.281250
3251,113.281250
3252,113.281250
3253,113.281250
3254,113.281250
3255,117.187500
3256,117.187500
3257,117.187500
3258,117.187500
3259,117.187500
3260,117.187500
3261,117.187500
3262,117.187500
3263,117.187500
3264,117.187500
3265,117.187500
3266,117.187500
3267,117.187500
3268,117.187500
3269,117.187500
3270,117.187500
3271,117.187500
3272,117.187500
3273,117.187500
3274,117.187500
3275,117.187500
3276,117.187500
3277,117.187500
3278,117.187500
3279,117.187500
3280,117.187500
3281,117.187500
3282,117.187500
3283,117.187500
3284,117.187500
3285,117.187500
3286,117.187500
3287,117.187500
3288,117.187500
3289,117.187500
3290,117.187500
3291,117.187500
3292,117.187500
3293,117.187500
3294,117.187500
3295,117.187500
3296,117.187500
3297,117.187500
3298,117.187500
3299,117.187500
3300,117.187500
3301,117.187500
3302,117.187500
3303,117.187500
3304,117.187500
3305,117.187500
3306,117.187500
3307,117.187500
3308,117.187500
3309,117.187500
3310,117.187500
3311,117.187500
3312,117.187500
3313,117.187500
3314,117.187500
3315,117.187500
3316,117.187500
3317,117.187500
3318,117.187500
3319,117.187500
3320,113.281250
3321,117.187500
3322,117.187500
3323,117.187500
3324,117.187500
3325,117.187500
3326,113.281250
3327,113.281250
3328,113.281250
3329,113.281250
3330,113.281250
3331,113.281250
3332,113.281250
3333,113.281250
3334,113.281250
3335,113.281250
3336,113.281250
3337,113.281250
3338,113.281250
3339,113.281250
3340,113.281250
3341,113.281250
3342,109.375000
3343,109.375000
3344,113.281250
3345,109.375000
3346,109.375000
3347,109.375000
3348,109.375000
3349,109.375000
3350,109.375000
3351,109.375000
3352,109.375000
3353,109.375000
3354,109.375000
3355,109.375000
3356,109.375000
3357,109.375000
3358,105.468750
3359,105.468750
3360,105.468750
3361,105.468750
3362,105.468750
3363,105.468750
3364,105.468750
3365,105.468750
3366,105.468750
3367,105.468750
3368,105.468750
3369,105.468750
3370,101.562500
3371,105.468750
3372,101.562500
3373,101.562500
3374,101.562500
3375,101.562500
3376,101.562500
3377,101.562500
3378,101.562500
3379,101.562500
3380,97.656250
3381,97.656250
3382,97.656250
3383,97.656250
3384,97.656250
3385,97.656250
3386,97.656250
3387,97.656250
3388,97.656250
3389,93.750000
3390,93.750000
3391,93.750000
3392,93.750000
3393,93.750000
3394,93.750000
3395,93.750000
3396,93.750000
3397,93.750000
3398,89.843750
3399,89.843750
3400,89.843750
3401,89.843750
3402,89.843750
3403,89.843750
3404,89.843750
3405,89.843750
3406,85.937500
3407,89.843750
3408,85.937500
3409,85.937500
3410,85.937500
3411,85.937500
3412,85.937500
3413,85.937500
3414,82.031250
3415,82.031250
3416,82.031250
3417,82.031250
3418,82.031250
3419,82.031250
3420,82.031250
3421,78.125000
3422,78.125000
3423,78.125000
3424,78.125000
3425,78.125000
3426,78.125000
3427,74.218750
3428,74.218750
3429,74.218750
3430,74.218750
3431,74.218750
3432,74.218750
3433,74.218750
3434,70.312500
3435,70.312500
3436,70.312500
3437,70.312500
3438,70.312500
3439,70.312500
3440,66.406250
3441,66.406250
3442,66.406250
3443,66.406250
3444,66.406250
3445,66.406250
3446,62.500000
3447,62.500000
3448,66.406250
3449,62.500000
3450,62.500000
3451,62.500000
3452,58.593750
3453,58.593750
3454,58.593750
3455,58.593750
3456,58.593750
3457,58.593750
3458,54.687500
3459,54.687500
3460,54.687500
3461,54.687500
3462,54.687500
3463,50.781250
3464,50.781250
3465,50.781250
3466,50.781250
3467,50.781250
3468,46.875000
3469,46.875000
3470,46.875000
3471,46.875000
3472,46.875000
3473,42.968750
3474,42.968750
3475,42.968750
3476,42.968750
3477,42.968750
3478,42.968750
3479,39.062500
3480,39.062500
3481,39.062500
3482,39.062500
3483,35.156250
3484,35.156250
3485,35.156250
3486,35.156250
3487,35.156250
3488,35.156250
3489,31.250000
3490,31.250000
3491,31.250000
3492,31.250000
3493,27.343750
3494,27.343750
3495,27.343750
3496,27.343750
3497,27.343750
3498,23.437500
3499,23.437500
3500,23.437500
3501,23.437500
3502,23.437500
3503,19.531250
3504,19.531250
3505,19.531250
3506,19.531250
3507,19.531250
3508,15.625000
3509,15.625000
3510,15.625000
3511,15.625000
3512,11.718750
3513,11.718750
3514,11.718750
3515,11.718750
3516,7.812500
3517,7.812500
3518,7.812500
3519,7.812500
3520,7.812500
3521,3.906250
3522,3.906250
3523,3.906250
3524,3.906250
3525,3.906250
3526,0.000000
3527,0.000000
3528,0.000000
3529,0.000000
3530,-3.906250
3531,-3.906250
3532,-3.906250
3533,-3.906250
3534,-3.906250
3535,-7.812500
3536,-7.812500
3537,-7.812500
3538,-7.812500
3539,-11.718750
3540,-11.718750
3541,-11.718750
3542,-11.718750
3543,-15.625000
3544,-15.625000
3545,-15.625000
3546,-15.625000
3547,-15.625000
3548,-19.531250
3549,-19.531250
3550,-19.531250
3551,-19.531250
3552,-23.437500
3553,-23.437500
3554,-23.437500
3555,-23.437500
3556,-27.343750
3557,-27.343750
3558,-27.343750
3559,-27.343750
3560,-27.343750
3561,-31.250000
3562,-31.250000
3563,-31.250000
3564,-31.250000
3565,-35.156250
3566,-35.156250
3567,-35.156250
3568,-35.156250
3569,-39.062500
3570,-39.062500
3571,-39.062500
3572,-39.062500
3573,-42.968750
3574,-42.968750
3575,-42.968750
3576,-42.968750
3577,-42.968750
3578,-46.875000
3579,-46.875000
3580,-46.875000
3581,-46.875000
3582,-46.875000
3583,-50.781250
3584,-50.781250
3585,-50.781250
3586,-54.687500
3587,-54.687500
3588,-54.687500
3589,-54.687500
3590,-54.687500
3591,-58.593750
3592,-58.593750
3593,-58.593750
3594,-58.593750
3595,-62.500000
3596,-62.500000
3597,-62.500000
3598,-62.500000
3599,-62.500000
3600,-62.500000
3601,-66.406250
3602,-66.406250
3603,-66.406250
3604,-70.312500
3605,-70.312500
3606,-70.312500
3607,-70.312500
3608,-74.218750
3609,-74.218750
3610,-74.218750
3611,-74.218750
3612,-74.218750
3613,-78.125000
3614,-78.125000
3615,-78.125000
3616,-78.125000
3617,-78.125000
3618,-78.125000
3619,-82.031250
3620,-82.031250
3621,-82.031250
3622,-82.031250
3623,-82.031250
3624,-85.937500
3625,-85.937500
3626,-85.937500
3627,-85.937500
3628,-89.843750
3629,-89.843750
3630,-89.843750
3631,-89.843750
3632,-89.843750
3633,-93.750000
3634,-93.750000
3635,-93.750000
3636,-93.750000
3637,-93.750000
3638,-93.750000
3639,-97.656250
3640,-97.656250
3641,-97.656250
3642,-101.562500
3643,-101.562500
3644,-101.562500
3645,-101.562500
3646,-101.562500
3647,-101.562500
3648,-101.562500
3649,-105.468750
3650,-105.468750
3651,-105.468750
3652,-105.468750
3653,-105.468750
3654,-109.375000
3655,-109.375000
3656,-109.375000
3657,-109.375000
3658,-109.375000
3659,-109.375000
3660,-113.281250
3661,-113.281250
3662,-113.281250
3663,-113.281250
3664,-113.281250
3665,-117.187500
3666,-117.187500
3667,-117.187500
3668,-117.187500
3669,-117.187500
3670,-117.187500
3671,-117.187500
3672,-121.093750
3673,-121.093750
3674,-121.093750
3675,-121.093750
3676,-121.093750
3677,-125.000000
3678,-121.093750
3679,-125.000000
3680,-125.000000
3681,-125.000000
3682,-125.000000
3683,-125.000000
3684,-125.000000
3685,-128.906250
3686,-128.906250
3687,-128.906250
3688,-128.906250
3689,-128.906250
3690,-128.906250
3691,-128.906250
3692,-132.812500
3693,-132.812500
3694,-132.812500
3695,-132.812500
3696,-132.812500
3697,-132.812500
3698,-132.812500
3699,-132.812500
3700,-136.718750
3701,-136.718750
3702,-136.718750
3703,-136.718750
3704,-136.718750
3705,-140.625000
3706,-136.718750
3707,-140.625000
3708,-140.625000
3709,-140.625000
3710,-140.625000
3711,-140.625000
3712,-140.625000
3713,-140.625000
3714,-140.625000
3715,-144.531250
3716,-144.531250
3717,-144.531250
3718,-144.531250
3719,-144.531250
3720,-144.531250
3721,-144.531250
3722,-144.531250
3723,-144.531250
3724,-144.531250
3725,-148.437500
3726,-148.437500
3727,-148.437500
3728,-148.437500
3729,-148.437500
3730,-148.437500
3731,-148.437500
3732,-148.437500
3733,-148.437500
3734,-148.437500
3735,-148.437500
3736,-148.437500
3737,-148.437500
3738,-152.343750
3739,-152.343750
3740,-152.343750
3741,-152.343750
3742,-152.343750
3743,-152.343750
3744,-152.343750
3745,-152.343750
3746,-152.343750
3747,-152.343750
3748,-152.343750
3749,-152.343750
3750,-152.343750
3751,-152.343750
3752,-152.343750
3753,-156.250000
3754,-156.250000
3755,-156.250000
3756,-152.343750
3757,-156.250000
3758,-156.250000
3759,-156.250000
3760,-156.250000
3761,-156.250000
3762,-156.250000
3763,-156.250000
3764,-156.250000
3765,-156.250000
3766,-156.250000
3767,-156.250000
3768,-156.250000
3769,-156.250000
3770,-156.250000
3771,-156.250000
3772,-156.250000
3773,-156.250000
3774,-156.250000
3775,-156.250000
3776,-156.250000
3777,-156.250000
3778,-156.250000
3779,-156.250000
3780,-156.250000
3781,-156.250000
3782,-156.250000
3783,-156.250000
3784,-156.250000
3785,-156.250000
3786,-156.250000
3787,-156.250000
3788,-156.250000
3789,-156.250000
3790,-156.250000
3791,-156.250000
3792,-156.250000
3793,-156.250000
3794,-156.250000
3795,-156.250000
3796,-156.250000
3797,-156.250000
3798,-156.250000
3799,-156.250000
3800,-156.250000
3801,-156.250000
3802,-156.250000
3803,-156.250000
3804,-156.250000
3805,-156.250000
3806,-156.250000
3807,-156.250000
3808,-156.250000
3809,-156.250000
3810,-152.343750
3811,-156.250000
3812,-152.343750
3813,-152.343750
3814,-152.343750
3815,-152.343750
3816,-152.343750
3817,-152.343750
3818,-152.343750
3819,-152.343750
3820,-152.343750
3821,-152.343750
3822,-152.343750
3823,-152.343750
3824,-152.343750
3825,-152.343750
3826,-152.343750
3827,-148.437500
3828,-148.437500
3829,-148.437500
3830,-148.437500
3831,-148.437500
3832,-148.437500
3833,-148.437500
3834,-148.437500
3835,-148.437500
3836,-148.437500
3837,-148.437500
3838,-148.437500
3839,-144.531250
3840,-144.531250
3841,-144.531250
3842,-144.531250
3843,-144.531250
3844,-144.531250
3845,-144.531250
3846,-144.531250
3847,-144.531250
3848,-144.531250
3849,-144.531250
3850,-140.625000
3851,-140.625000
3852,-140.625000
3853,-140.625000
3854,-140.625000
3855,-140.625000
3856,-140.625000
3857,-140.625000
3858,-140.625000
3859,-140.625000
3860,-136.718750
3861,-136.718750
3862,-136.718750
3863,-136.718750
3864,-136.718750
3865,-136.718750
3866,-136.718750
3867,-136.718750
3868,-132.812500
3869,-132.812500
3870,-132.812500
3871,-132.812500
3872,-132.812500
3873,-132.812500
3874,-132.812500
3875,-128.906250
3876,-128.906250
3877,-128.906250
3878,-128.906250
3879,-128.906250
3880,-128.906250
3881,-128.906250
3882,-125.000000
3883,-125.000000
3884,-125.000000
3885,-125.000000
3886,-125.000000
3887,-125.000000
3888,-121.093750
3889,-121.093750
3890,-121.093750
3891,-121.093750
3892,-121.093750
3893,-121.093750
3894,-121.093750
3895,-117.187500
3896,-117.187500
3897,-117.187500
3898,-117.187500
3899,-117.187500
3900,-113.281250
3901,-113.281250
3902,-113.281250
3903,-113.281250
3904,-113.281250
3905,-113.281250
3906,-109.375000
3907,-109.375000
3908,-109.375000
3909,-109.375000
3910,-109.375000
3911,-109.375000
3912,-109.375000
3913,-105.468750
3914,-105.468750
3915,-105.468750
3916,-105.468750
3917,-105.468750
3918,-101.562500
3919,-101.562500
3920,-101.562500
3921,-101.562500
3922,-97.656250
3923,-97.656250
3924,-97.656250
3925,-97.656250
3926,-97.656250
3927,-97.656250
3928,-93.750000
3929,-93.750000
3930,-93.750000
3931,-93.750000
3932,-93.750000
3933,-89.843750
3934,-89.843750
3935,-89.843750
3936,-89.843750
3937,-89.843750
3938,-85.937500
3939,-85.937500
3940,-85.937500
3941,-85.937500
3942,-85.937500
3943,-85.937500
3944,-82.031250
3945,-82.031250
3946,-82.031250
3947,-78.125000
3948,-78.125000
3949,-78.125000
3950,-78.125000
3951,-78.125000
3952,-74.218750
3953,-74.218750
3954,-74.218750
3955,-74.218750
3956,-74.218750
3957,-70.312500
3958,-70.312500
3959,-70.312500
3960,-70.312500
3961,-70.312500
3962,-66.406250
3963,-66.406250
3964,-66.406250
3965,-66.406250
3966,-62.500000
3967,-62.500000
3968,-62.500000
3969,-62.500000
3970,-58.593750
3971,-58.593750
3972,-58.593750
3973,-58.593750
3974,-54.687500
3975,-54.687500
3976,-54.687500
3977,-54.687500
3978,-54.687500
3979,-50.781250
3980,-50.781250
3981,-50.781250
3982,-50.781250
3983,-50.781250
3984,-46.875000
3985,-46.875000
3986,-46.875000
3987,-46.875000
3988,-42.968750
3989,-42.968750
3990,-42.968750
3991,-42.968750
3992,-42.968750
3993,-39.062500
3994,-39.062500
3995,-39.062500
3996,-39.062500
3997,-39.062500
3998,-35.156250
3999,-35.156250
4000,-35.156250
4001,-35.156250
4002,-31.250000
4003,-31.250000
4004,-31.250000
4005,-31.250000
4006,-31.250000
4007,-27.343750
4008,-27.343750
4009,-27.343750
4010,-23.437500
4011,-23.437500
4012,-23.437500
4013,-23.437500
4014,-23.437500
4015,-19.531250
4016,-19.531250
4017,-19.531250
4018,-19.531250
4019,-15.625000
4020,-15.625000
4021,-15.625000
4022,-15.625000
4023,-15.625000
4024,-11.718750
4025,-11.718750
4026,-11.718750
4027,-11.718750
4028,-7.812500
4029,-7.812500
4030,-7.812500
4031,-7.812500
4032,-3.906250
4033,-3.906250
4034,-3.906250
4035,-3.906250
4036,-3.906250
4037,0.000000
4038,0.000000
4039,0.000000
4040,0.000000
4041,3.906250
4042,3.906250
4043,3.906250
4044,3.906250
4045,3.906250
4046,7.812500
4047,7.812500
4048,7.812500
4049,7.812500
4050,11.718750
4051,11.718750
4052,11.718750
4053,11.718750
4054,15.625000
4055,15.625000
4056,15.625000
4057,15.625000
4058,15.625000
4059,15.625000
4060,19.531250
4061,19.531250
4062,19.531250
4063,19.531250
4064,23.437500
4065,23.437500
4066,23.437500
4067,23.437500
4068,23.437500
4069,27.343750
4070,27.343750
4071,27.343750
4072,27.343750
4073,27.343750
4074,31.250000
4075,31.250000
4076,31.250000
4077,31.250000
4078,31.250000
4079,35.156250
4080,35.156250
4081,35.156250
4082,35.156250
4083,35.156250
4084,39.062500
4085,39.062500
4086,39.062500
4087,39.062500
4088,39.062500
4089,39.062500
4090,42.968750
4091,42.968750
4092,42.968750
4093,42.968750
4094,42.968750
4095,46.875000
4096,46.875000
4097,46.875000
4098,46.875000
4099,50.781250
4100,50.781250
4101,50.781250
4102,50.781250
4103,50.781250
4104,50.781250
4105,50.781250
4106,54.687500
4107,54.687500
4108,54.687500
4109,54.687500
4110,54.687500
4111,58.593750
4112,58.593750
4113,58.593750
4114,58.593750
4115,58.593750
4116,62.500000
4117,62.500000
4118,62.500000
4119,62.500000
4120,62.500000
4121,62.500000
4122,62.500000
4123,66.406250
4124,66.406250
4125,66.406250
4126,66.406250
4127,66.406250
4128,70.312500
4129,70.312500
4130,70.312500
4131,70.312500
4132,70.312500
4133,70.312500
4134,70.312500
4135,74.218750
4136,74.218750
4137,74.218750
4138,74.218750
4139,74.218750
4140,74.218750
4141,74.218750
4142,78.125000
4143,78.125000
4144,78.125000
4145,78.125000
4146,78.125000
4147,78.125000
4148,82.031250
4149,82.031250
4150,82.031250
4151,82.031250
4152,82.031250
4153,82.031250
4154,82.031250
4155,82.031250
4156,85.937500
4157,85.937500
4158,85.937500
4159,85.937500
4160,85.937500
4161,85.937500
4162,85.937500
4163,89.843750
4164,89.843750
4165,89.843750
4166,89.843750
4167,89.843750
4168,89.843750
4169,89.843750
4170,93.750000
4171,93.750000
4172,93.750000
4173,93.750000
4174,93.750000
4175,93.750000
4176,93.750000
4177,93.750000
4178,97.656250
4179,97.656250
4180,97.656250
4181,97.656250
4182,97.656250
4183,97.656250
4184,97.656250
4185,97.656250
4186,97.656250
4187,97.656250
4188,97.656250
4189,101.562500
4190,101.562500
4191,101.562500
4192,101.562500
4193,101.562500
4194,101.562500
4195,101.562500
4196,101.562500
4197,101.562500
4198,101.562500
4199,101.562500
4200,105.468750
4201,105.468750
4202,105.468750
4203,105.468750
4204,105.468750
4205,105.468750
4206,105.468750
4207,105.468750
4208,105.468750
4209,105.468750
4210,109.375000
4211,109.375000
4212,109.375000
4213,105.468750
4214,109.375000
4215,109.375000
4216,109.375000
4217,109.375000
4218,109.375000
4219,109.375000
4220,109.375000
4221,109.375000
4222,109.375000
4223,109.375000
4224,113.281250
4225,113.281250
4226,113.281250
4227,113.281250
4228,113.281250
4229,113.281250
4230,113.281250
4231,113.281250
4232,113.281250
4233,113.281250
4234,113.281250
4235,113.281250
4236,113.281250
4237,113.281250
4238,113.281250
4239,113.281250
4240,113.281250
4241,113.281250
4242,113.281250
4243,113.281250
4244,113.281250
4245,113.281250
4246,113.281250
4247,113.281250
4248,113.281250
4249,117.187500
4250,117.187500
4251,117.187500
4252,117.187500
4253,117.187500
4254,117.187500
4255,117.187500
4256,117.187500
4257,117.187500
4258,117.187500
4259,117.187500
4260,117.187500
4261,117.187500
4262,117.187500
4263,117.187500
4264,117.187500
4265,117.187500
4266,117.187500
4267,117.187500
4268,117.187500
4269,117.187500
4270,117.187500
4271,117.187500
4272,117.187500
4273,117.187500
4274,117.187500
4275,117.187500
4276,117.187500
4277,117.187500
4278,117.187500
4279,117.187500
4280,117.187500
4281,117.187500
4282,117.187500
4283,117.187500
4284,117.187500
4285,117.187500
4286,117.187500
4287,117.187500
4288,117.187500
4289,117.187500
4290,117.187500
4291,117.187500
4292,117.187500
4293,117.187500
4294,117.187500
4295,117.187500
4296,117.187500
4297,117.187500
4298,117.187500
4299,117.187500
4300,117.187500
4301,117.187500
4302,117.187500
4303,117.187500
4304,117.187500
4305,117.187500
4306,117.187500
4307,117.187500
4308,117.187500
4309,117.187500
4310,117.187500
4311,117.187500
4312,117.187500
4313,117.187500
4314,113.281250
4315,117.187500
4316,113.281250
4317,113.281250
4318,113.281250
4319,113.281250
4320,113.281250
4321,113.281250
4322,113.281250
4323,113.281250
4324,113.281250
4325,113.281250
4326,113.281250
4327,113.281250
4328,113.281250
4329,113.281250
4330,113.281250
4331,113.281250
4332,113.281250
4333,113.281250
4334,109.375000
4335,109.375000
4336,109.375000
4337,109.375000
4338,109.375000
4339,109.375000
4340,109.375000
4341,109.375000
4342,109.375000
4343,109.375000
4344,109.375000
4345,109.375000
4346,109.375000
4347,109.375000
4348,105.468750
4349,105.468750
4350,105.468750
4351,105.468750
4352,105.468750
4353,105.468750
4354,105.468750
4355,105.468750
4356,105.468750
4357,105.468750
4358,105.468750
4359,101.562500
4360,101.562500
4361,101.562500
4362,101.562500
4363,101.562500
4364,101.562500
4365,101.562500
4366,101.562500
4367,101.562500
4368,101.562500
4369,101.562500
4370,101.562500
4371,97.656250
4372,97.656250
4373,97.656250
4374,97.656250
4375,97.656250
4376,97.656250
4377,97.656250
4378,97.656250
4379,93.750000
4380,93.750000
4381,93.750000
4382,93.750000
4383,93.750000
4384,93.750000
4385,93.750000
4386,93.750000
4387,93.750000
4388,89.843750
4389,89.843750
4390,89.843750
4391,89.843750
4392,89.843750
4393,89.843750
4394,89.843750
4395,89.843750
4396,89.843750
4397,85.937500
4398,85.937500
4399,85.937500
4400,85.937500
4401,85.937500
4402,85.937500
4403,85.937500
4404,85.937500
4405,85.937500
4406,82.031250
4407,82.031250
4408,78.125000
4409,82.031250
4410,78.125000
4411,78.125000
4412,78.125000
4413,78.125000
4414,78.125000
4415,78.125000
4416,78.125000
4417,78.125000
4418,74.218750
4419,74.218750
4420,74.218750
4421,74.218750
4422,74.218750
4423,74.218750
4424,74.218750
4425,70.312500
4426,70.312500
4427,70.312500
4428,70.312500
4429,70.312500
4430,70.312500
4431,66.406250
4432,66.406250
4433,66.406250
4434,66.406250
4435,66.406250
4436,66.406250
4437,62.500000
4438,62.500000
4439,62.500000
4440,62.500000
4441,62.500000
4442,58.593750
4443,62.500000
4444,58.593750
4445,58.593750
4446,58.593750
4447,54.687500
4448,54.687500
4449,54.687500
4450,54.687500
4451,54.687500
4452,54.687500
4453,54.687500
4454,50.781250
4455,50.781250
4456,50.781250
4457,50.781250
4458,50.781250
4459,46.875000
4460,46.875000
4461,46.875000
4462,46.875000
4463,46.875000
4464,42.968750
4465,42.968750
4466,42.968750
4467,42.968750
4468,42.968750
4469,39.062500
4470,39.062500
4471,39.062500
4472,39.062500
4473,39.062500
4474,35.156250
4475,35.156250
4476,35.156250
4477,35.156250
4478,35.156250
4479,35.156250
4480,31.250000
4481,31.250000
4482,31.250000
4483,27.343750
4484,27.343750
4485,27.343750
4486,27.343750
4487,27.343750
4488,27.343750
4489,23.437500
4490,23.437500
4491,23.437500
4492,23.437500
4493,19.531250
4494,19.531250
4495,19.531250
4496,19.531250
4497,19.531250
4498,15.625000
4499,15.625000
4500,15.625000
4501,15.625000
4502,15.625000
4503,11.718750
4504,11.718750
4505,11.718750
4506,11.718750
4507,7.812500
4508,7.812500
4509,7.812500
4510,3.906250
4511,3.906250
4512,3.906250
4513,3.906250
4514,3.906250
4515,3.906250
4516,0.000000
4517,0.000000
4518,0.000000
4519,0.000000
4520,-3.906250
4521,-3.906250
4522,-3.906250
4523,-3.906250
4524,-3.906250
4525,-7.812500
4526,-7.812500
4527,-7.812500
4528,-7.812500
4529,-11.718750
4530,-11.718750
4531,-11.718750
4532,-11.718750
4533,-15.625000
4534,-15.625000
4535,-15.625000
4536,-15.625000
4537,-19.531250
4538,-19.531250
4539,-19.531250
4540,-19.531250
4541,-19.531250
4542,-23.437500
4543,-23.437500
4544,-23.437500
4545,-23.437500
4546,-27.343750
4547,-27.343750
4548,-27.343750
4549,-27.343750
4550,-31.250000
4551,-31.250000
4552,-31.250000
4553,-31.250000
4554,-31.250000
4555,-35.156250
4556,-35.156250
4557,-35.156250
4558,-35.156250
4559,-39.062500
4560,-39.062500
4561,-39.062500
4562,-39.062500
4563,-42.968750
4564,-42.968750
4565,-42.968750
4566,-42.968750
4567,-42.968750
4568,-46.875000
4569,-46.875000
4570,-46.875000
4571,-46.875000
4572,-50.781250
4573,-50.781250
4574,-50.781250
4575,-50.781250
4576,-54.687500
4577,-50.781250
4578,-54.687500
4579,-54.687500
4580,-54.687500
4581,-58.593750
4582,-58.593750
4583,-58.593750
4584,-58.593750
4585,-58.593750
4586,-62.500000
4587,-62.500000
4588,-62.500000
4589,-62.500000
4590,-66.406250
4591,-66.406250
4592,-66.406250
4593,-66.406250
4594,-66.406250
4595,-70.312500
4596,-70.312500
4597,-70.312500
4598,-70.312500
4599,-74.218750
4600,-74.218750
4601,-74.218750
4602,-74.218750
4603,-74.218750
4604,-74.218750
4605,-78.125000
4606,-78.125000
4607,-78.125000
4608,-82.031250
4609,-82.031250
4610,-82.031250
4611,-82.031250
4612,-82.031250
4613,-82.031250
4614,-85.937500
4615,-85.937500
4616,-85.937500
4617,-85.937500
4618,-89.843750
4619,-89.843750
4620,-89.843750
4621,-89.843750
4622,-89.843750
4623,-93.750000
4624,-93.750000
4625,-93.750000
4626,-93.750000
4627,-93.750000
4628,-97.656250
4629,-97.656250
4630,-97.656250
4631,-97.656250
4632,-97.656250
4633,-101.562500
4634,-101.562500
4635,-101.562500
4636,-101.562500
4637,-101.562500
4638,-105.468750
4639,-105.468750
4640,-105.468750
4641,-105.468750
4642,-105.468750
4643,-105.468750
4644,-109.375000
4645,-109.375000
4646,-109.375000
4647,-109.375000
4648,-109.375000
4649,-109.375000
4650,-113.281250
4651,-113.281250
4652,-113.281250
4653,-113.281250
4654,-113.281250
4655,-117.187500
4656,-117.187500
4657,-117.187500
4658,-117.187500
4659,-117.187500
4660,-117.187500
4661,-121.093750
4662,-121.093750
4663,-121.093750
4664,-121.093750
4665,-121.093750
4666,-121.093750
4667,-121.093750
4668,-125.000000
4669,-125.000000
4670,-125.000000
4671,-125.000000
4672,-125.000000
4673,-128.906250
4674,-125.000000
4675,-128.906250
4676,-128.906250
4677,-128.906250
4678,-128.906250
4679,-128.906250
4680,-132.812500
4681,-132.812500
4682,-132.812500
4683,-132.812500
4684,-132.812500
4685,-132.812500
4686,-132.812500
4687,-132.812500
4688,-136.718750
4689,-132.812500
4690,-136.718750
4691,-136.718750
4692,-136.718750
4693,-136.718750
4694,-136.718750
4695,-140.625000
4696,-140.625000
4697,-136.718750
4698,-140.625000
4699,-140.625000
4700,-140.625000
4701,-140.625000
4702,-140.625000
4703,-140.625000
4704,-140.625000
4705,-140.625000
4706,-144.531250
4707,-144.531250
4708,-144.531250
4709,-144.531250
4710,-144.531250
4711,-144.531250
4712,-144.531250
4713,-144.531250
4714,-144.531250
4715,-148.437500
4716,-148.437500
4717,-148.437500
4718,-148.437500
4719,-148.437500
4720,-148.437500
4721,-148.437500
4722,-148.437500
4723,-148.437500
4724,-148.437500
4725,-148.437500
4726,-148.437500
4727,-152.343750
4728,-148.437500
4729,-152.343750
4730,-152.343750
4731,-152.343750
4732,-152.343750
4733,-152.343750
4734,-152.343750
4735,-152.343750
4736,-152.343750
4737,-152.343750
4738,-152.343750
4739,-152.343750
4740,-152.343750
4741,-152.343750
4742,-152.343750
4743,-156.250000
4744,-156.250000
4745,-152.343750
4746,-156.250000
4747,-156.250000
4748,-156.250000
4749,-156.250000
4750,-156.250000
4751,-156.250000
4752,-156.250000
4753,-156.250000
4754,-156.250000
4755,-156.250000
4756,-156.250000
4757,-156.250000
4758,-156.250000
4759,-156.250000
4760,-156.250000
4761,-156.250000
4762,-156.250000
4763,-156.250000
4764,-156.250000
4765,-156.250000
4766,-156.250000
4767,-156.250000
4768,-156.250000
4769,-156.250000
4770,-156.250000
4771,-156.250000
4772,-156.250000
4773,-156.250000
4774,-156.250000
4775,-156.250000
4776,-156.250000
4777,-156.250000
4778,-156.250000
4779,-156.250000
4780,-156.250000
4781,-156.250000
4782,-156.250000
4783,-156.250000
4784,-156.250000
4785,-156.250000
4786,-156.250000
4787,-156.250000
4788,-156.250000
4789,-156.250000
4790,-156.250000
4791,-156.250000
4792,-156.250000
4793,-156.250000
4794,-156.250000
4795,-156.250000
4796,-156.250000
4797,-156.250000
4798,-156.250000
4799,-156.250000
4800,-156.250000
4801,-156.250000
4802,-156.250000
4803,-156.250000
4804,-152.343750
4805,-152.343750
4806,-152.343750
4807,-152.343750
4808,-152.343750
4809,-152.343750
4810,-152.343750
4811,-152.343750
4812,-152.343750
4813,-152.343750
4814,-152.343750
4815,-152.343750
4816,-152.343750
4817,-148.437500
4818,-148.437500
4819,-148.437500
4820,-148.437500
4821,-148.437500
4822,-148.437500
4823,-148.437500
4824,-148.437500
4825,-148.437500
4826,-148.437500
4827,-148.437500
4828,-148.437500
4829,-144.531250
4830,-144.531250
4831,-144.531250
4832,-144.531250
4833,-144.531250
4834,-144.531250
4835,-144.531250
4836,-144.531250
4837,-144.531250
4838,-144.531250
4839,-140.625000
4840,-144.531250
4841,-140.625000
4842,-140.625000
4843,-140.625000
4844,-140.625000
4845,-140.625000
4846,-140.625000
4847,-140.625000
4848,-140.625000
4849,-140.625000
4850,-140.625000
4851,-136.718750
4852,-136.718750
4853,-136.718750
4854,-136.718750
4855,-136.718750
4856,-136.718750
4857,-136.718750
4858,-132.812500
4859,-132.812500
4860,-132.812500
4861,-132.812500
4862,-132.812500
4863,-132.812500
4864,-132.812500
4865,-128.906250
4866,-128.906250
4867,-128.906250
4868,-128.906250
4869,-128.906250
4870,-128.906250
4871,-128.906250
4872,-125.000000
4873,-125.000000
4874,-125.000000
4875,-125.000000
4876,-125.000000
4877,-125.000000
4878,-125.000000
4879,-121.093750
4880,-121.093750
4881,-121.093750
4882,-121.093750
4883,-121.093750
4884,-121.093750
4885,-121.093750
4886,-117.187500
4887,-117.187500
4888,-117.187500
4889,-117.187500
4890,-117.187500
4891,-113.281250
4892,-113.281250
4893,-113.281250
4894,-113.281250
4895,-113.281250
4896,-113.281250
4897,-109.375000
4898,-109.375000
4899,-109.375000
4900,-109.375000
4901,-109.375000
4902,-105.468750
4903,-105.468750
4904,-105.468750
4905,-105.468750
4906,-105.468750
4907,-101.562500
4908,-101.562500
4909,-101.562500
4910,-101.562500
4911,-101.562500
4912,-101.562500
4913,-101.562500
4914,-97.656250
4915,-97.656250
4916,-97.656250
4917,-97.656250
4918,-93.750000
4919,-93.750000
4920,-93.750000
4921,-93.750000
4922,-93.750000
4923,-89.843750
4924,-89.843750
4925,-89.843750
4926,-89.843750
4927,-89.843750
4928,-85.937500
4929,-85.937500
4930,-85.937500
4931,-85.937500
4932,-85.937500
4933,-82.031250
4934,-82.031250
4935,-82.031250
4936,-82.031250
4937,-82.031250
4938,-78.125000
4939,-78.125000
4940,-78.125000
4941,-78.125000
4942,-74.218750
4943,-74.218750
4944,-74.218750
4945,-74.218750
4946,-74.218750
4947,-74.218750
4948,-70.312500
4949,-70.312500
4950,-70.312500
4951,-70.312500
4952,-66.406250
4953,-66.406250
4954,-66.406250
4955,-66.406250
4956,-62.500000
4957,-62.500000
4958,-62.500000
4959,-62.500000
4960,-58.593750
4961,-58.593750
4962,-58.593750
4963,-58.593750
4964,-58.593750
4965,-54.687500
4966,-54.687500
4967,-54.687500
4968,-54.687500
4969,-54.687500
4970,-50.781250
4971,-50.781250
4972,-50.781250
4973,-50.781250
4974,-46.875000
4975,-46.875000
4976,-46.875000
4977,-46.875000
4978,-46.875000
4979,-42.968750
4980,-42.968750
4981,-42.968750
4982,-42.968750
4983,-42.968750
4984,-39.062500
4985,-39.062500
4986,-39.062500
4987,-39.062500
4988,-35.156250
4989,-35.156250
4990,-35.156250
4991,-35.156250
4992,-31.250000
4993,-31.250000
4994,-31.250000
4995,-31.250000
4996,-31.250000
4997,-31.250000
4998,-27.343750
4999,-27.343750
5000,-23.437500
5001,-23.437500
5002,-23.437500
5003,-23.437500
5004,-23.437500
5005,-23.437500
5006,-19.531250
5007,-19.531250
5008,-19.531250
5009,-15.625000
5010,-15.625000
5011,-15.625000
5012,-15.625000
5013,-15.625000
5014,-11.718750
5015,-11.718750
5016,-11.718750
5017,-11.718750
5018,-7.812500
5019,-7.812500
5020,-7.812500
5021,-7.812500
5022,-3.906250
5023,-3.906250
5024,-3.906250
5025,-3.906250
5026,-3.906250
5027,-3.906250
5028,0.000000
5029,0.000000
5030,0.000000
5031,3.906250
5032,3.906250
5033,3.906250
5034,3.906250
5035,3.906250
5036,3.906250
5037,3.906250
5038,7.812500
5039,7.812500
5040,11.718750
5041,11.718750
5042,11.718750
5043,11.718750
5044,11.718750
5045,11.718750
5046,15.625000
5047,15.625000
5048,15.625000
5049,15.625000
5050,19.531250
5051,19.531250
5052,19.531250
5053,19.531250
5054,19.531250
5055,23.437500
5056,23.437500
5057,23.437500
5058,23.437500
5059,27.343750
5060,27.343750
5061,27.343750
5062,27.343750
5063,27.343750
5064,27.343750
5065,31.250000
5066,31.250000
5067,31.250000
5068,31.250000
5069,35.156250
5070,35.156250
5071,35.156250
5072,35.156250
5073,35.156250
5074,35.156250
5075,39.062500
5076,39.062500
5077,39.062500
5078,42.968750
5079,42.968750
5080,42.968750
5081,42.968750
5082,42.968750
5083,42.968750
5084,42.968750
5085,46.875000
5086,46.875000
5087,46.875000
5088,46.875000
5089,46.875000
5090,50.781250
5091,50.781250
5092,50.781250
5093,50.781250
5094,54.687500
5095,54.687500
5096,54.687500
5097,54.687500
5098,54.687500
5099,54.687500
5100,58.593750
5101,58.593750
5102,58.593750
5103,58.593750
5104,58.593750
5105,58.593750
5106,62.500000
5107,62.500000
5108,62.500000
5109,62.500000
5110,62.500000
5111,62.500000
5112,66.406250
5113,66.406250
5114,66.406250
5115,66.406250
5116,66.406250
5117,66.406250
5118,66.406250
5119,70.312500
5120,70.312500
5121,70.312500
5122,70.312500
5123,70.312500
5124,70.312500
5125,74.218750
5126,74.218750
5127,74.218750
5128,74.218750
5129,74.218750
5130,78.125000
5131,78.125000
5132,78.125000
5133,78.125000
5134,78.125000
5135,78.125000
5136,78.125000
5137,82.031250
5138,82.031250
5139,82.031250
5140,82.031250
5141,82.031250
5142,82.031250
5143,82.031250
5144,85.937500
5145,82.031250
5146,85.937500
5147,85.937500
5148,85.937500
5149,85.937500
5150,85.937500
5151,85.937500
5152,89.843750
5153,89.843750
5154,89.843750
5155,89.843750
5156,89.843750
5157,89.843750
5158,89.843750
5159,89.843750
5160,93.750000
5161,93.750000
5162,93.750000
5163,93.750000
5164,93.750000
5165,93.750000
5166,93.750000
5167,93.750000
5168,93.750000
5169,97.656250
5170,97.656250
5171,97.656250
5172,97.656250
5173,97.656250
5174,97.656250
5175,97.656250
5176,97.656250
5177,97.656250
5178,101.562500
5179,101.562500
5180,101.562500
5181,101.562500
5182,101.562500
5183,101.562500
5184,101.562500
5185,101.562500
5186,101.562500
5187,101.562500
5188,101.562500
5189,101.562500
5190,105.468750
5191,105.468750
5192,105.468750
5193,105.468750
5194,105.468750
5195,105.468750
5196,105.468750
5197,105.468750
5198,105.468750
5199,105.468750
5200,105.468750
5201,109.375000
5202,109.375000
5203,109.375000
5204,109.375000
5205,109.375000
5206,109.375000
5207,109.375000
5208,109.375000
5209,109.375000
5210,109.375000
5211,109.375000
5212,109.375000
5213,109.375000
5214,109.375000
5215,109.375000
5216,113.281250
5217,113.281250
5218,113.281250
5219,113.281250
5220,113.281250
5221,113.281250
5222,113.281250
5223,113.281250
5224,113.281250
5225,113.281250
5226,113.281250
5227,113.281250
5228,113.281250
5229,113.281250
5230,113.281250
5231,113.281250
5232,113.281250
5233,113.281250
5234,113.281250
5235,113.281250
5236,117.187500
5237,117.187500
5238,117.187500
5239,117.187500
5240,117.187500
5241,117.187500
5242,117.187500
5243,117.187500
5244,117.187500
5245,117.187500
5246,117.187500
5247,117.187500
5248,117.187500
5249,117.187500
5250,117.187500
5251,117.187500
5252,117.187500
5253,117.187500
5254,117.187500
5255,117.187500
5256,117.187500
5257,117.187500
5258,117.187500
5259,117.187500
5260,117.187500
5261,117.187500
5262,117.187500
5263,117.187500
5264,117.187500
5265,117.187500
5266,117.187500
5267,117.187500
5268,117.187500
5269,117.187500
5270,117.187500
5271,117.187500
5272,117.187500
5273,117.187500
5274,117.187500
5275,117.187500
5276,117.187500
5277,117.187500
5278,117.187500
5279,117.187500
5280,117.187500
5281,117.187500
5282,117.187500
5283,117.187500
5284,117.187500
5285,117.187500
5286,117.187500
5287,117.187500
5288,117.187500
5289,117.187500
5290,117.187500
5291,117.187500
5292,117.187500
5293,117.187500
5294,117.187500
5295,117.187500
5296,117.187500
5297,117.187500
5298,117.187500
5299,117.187500
5300,117.187500
5301,117.187500
5302,117.187500
5303,113.281250
5304,117.187500
5305,113.281250
5306,113.281250
5307,113.281250
5308,113.281250
5309,113.281250
5310,113.281250
5311,113.281250
5312,113.281250
5313,113.281250
5314,113.281250
5315,113.281250
5316,113.281250
5317,113.281250
5318,113.281250
5319,113.281250
5320,113.281250
5321,113.281250
5322,113.281250
5323,113.281250
5324,113.281250
5325,109.375000
5326,109.375000
5327,109.375000
5328,109.375000
5329,113.281250
5330,109.375000
5331,109.375000
5332,109.375000
5333,113.281250
5334,109.375000
5335,109.375000
5336,109.375000
5337,109.375000
5338,109.375000
5339,105.468750
5340,109.375000
5341,105.468750
5342,105.468750
5343,105.468750
5344,105.468750
5345,105.468750
5346,105.468750
5347,105.468750
5348,105.468750
5349,105.468750
5350,105.468750
5351,101.562500
5352,101.562500
5353,101.562500
5354,101.562500
5355,101.562500
5356,101.562500
5357,101.562500
5358,101.562500
5359,101.562500
5360,101.562500
5361,101.562500
5362,101.562500
5363,97.656250
5364,97.656250
5365,97.656250
5366,97.656250
5367,97.656250
5368,97.656250
5369,97.656250
5370,97.656250
5371,93.750000
5372,93.750000
5373,93.750000
5374,93.750000
5375,93.750000
5376,89.843750
5377,93.750000
5378,89.843750
5379,89.843750
5380,89.843750
5381,89.843750
5382,89.843750
5383,89.843750
5384,89.843750
5385,89.843750
5386,85.937500
5387,85.937500
5388,85.937500
5389,85.937500
5390,85.937500
5391,85.937500
5392,85.937500
5393,85.937500
5394,82.031250
5395,82.031250
5396,82.031250
5397,82.031250
5398,82.031250
5399,82.031250
5400,82.031250
5401,78.125000
5402,78.125000
5403,78.125000
5404,78.125000
5405,78.125000
5406,78.125000
5407,74.218750
5408,74.218750
5409,74.218750
5410,74.218750
5411,74.218750
5412,74.218750
5413,74.218750
5414,70.312500
5415,70.312500
5416,70.312500
5417,70.312500
5418,70.312500
5419,70.312500
5420,70.312500
5421,66.406250
5422,66.406250
5423,66.406250
5424,66.406250
5425,66.406250
5426,62.500000
5427,62.500000
5428,62.500000
5429,62.500000
5430,62.500000
5431,62.500000
5432,58.593750
5433,62.500000
5434,58.593750
5435,58.593750
5436,58.593750
5437,54.687500
5438,54.687500
5439,54.687500
5440,54.687500
5441,54.687500
5442,54.687500
5443,50.781250
5444,50.781250
5445,50.781250
5446,50.781250
5447,50.781250
5448,46.875000
5449,46.875000
5450,46.875000
5451,46.875000
5452,46.875000
5453,42.968750
5454,42.968750
5455,42.968750
5456,42.968750
5457,42.968750
5458,42.968750
5459,39.062500
5460,39.062500
5461,39.062500
5462,39.062500
5463,39.062500
5464,35.156250
5465,35.156250
5466,35.156250
5467,35.156250
5468,35.156250
5469,31.250000
5470,31.250000
5471,31.250000
5472,31.250000
5473,31.250000
5474,27.343750
5475,27.343750
5476,27.343750
5477,27.343750
5478,23.437500
5479,23.437500
5480,23.437500
5481,23.437500
5482,23.437500
5483,19.531250
5484,19.531250
5485,19.531250
5486,19.531250
5487,15.625000
5488,15.625000
5489,15.625000
5490,15.625000
5491,15.625000
5492,15.625000
5493,11.718750
5494,11.718750
5495,11.718750
5496,11.718750
5497,7.812500
5498,7.812500
5499,7.812500
5500,7.812500
5501,3.906250
5502,3.906250
5503,3.906250
5504,3.906250
5505,3.906250
5506,0.000000
5507,0.000000
5508,0.000000
5509,0.000000
5510,-3.906250
5511,-3.906250
5512,-3.906250
5513,-3.906250
5514,-3.906250
5515,-7.812500
5516,-7.812500
5517,-7.812500
5518,-11.718750
5519,-11.718750
5520,-11.718750
5521,-11.718750
5522,-11.718750
5523,-15.625000
5524,-15.625000
5525,-15.625000
5526,-15.625000
5527,-15.625000
5528,-19.531250
5529,-19.531250
5530,-19.531250
5531,-19.531250
5532,-23.437500
5533,-23.437500
5534,-23.437500
5535,-23.437500
5536,-27.343750
5537,-27.343750
5538,-27.343750
5539,-27.343750
5540,-31.250000
5541,-31.250000
5542,-31.250000
5543,-31.250000
5544,-31.250000
5545,-35.156250
5546,-35.156250
5547,-35.156250
5548,-35.156250
5549,-39.062500
5550,-39.062500
5551,-39.062500
5552,-39.062500
5553,-42.968750
5554,-42.968750
5555,-42.968750
5556,-42.968750
5557,-46.875000
5558,-46.875000
5559,-46.875000
5560,-46.875000
5561,-46.875000
5562,-50.781250
5563,-50.781250
5564,-50.781250
5565,-54.687500
5566,-54.687500
5567,-54.687500
5568,-54.687500
5569,-54.687500
5570,-54.687500
5571,-58.593750
5572,-58.593750
5573,-58.593750
5574,-62.500000
5575,-62.500000
5576,-62.500000
5577,-62.500000
5578,-62.500000
5579,-66.406250
5580,-66.406250
5581,-66.406250
5582,-66.406250
5583,-66.406250
5584,-70.312500
5585,-70.312500
5586,-70.312500
5587,-70.312500
5588,-74.218750
5589,-74.218750
5590,-74.218750
5591,-74.218750
5592,-74.218750
5593,-78.125000
5594,-78.125000
5595,-78.125000
5596,-78.125000
5597,-78.125000
5598,-82.031250
5599,-82.031250
5600,-82.031250
5601,-82.031250
5602,-82.031250
5603,-85.937500
5604,-85.937500
5605,-85.937500
5606,-85.937500
5607,-89.843750
5608,-89.843750
5609,-89.843750
5610,-89.843750
5611,-89.843750
5612,-93.750000
5613,-93.750000
5614,-93.750000
5615,-93.750000
5616,-93.750000
5617,-97.656250
5618,-97.656250
5619,-97.656250
5620,-97.656250
5621,-97.656250
5622,-97.656250
5623,-101.562500
5624,-101.562500
5625,-101.562500
5626,-101.562500
5627,-105.468750
5628,-105.468750
5629,-105.468750
5630,-105.468750
5631,-105.468750
5632,-105.468750
5633,-109.375000
5634,-109.375000
5635,-109.375000
5636,-109.375000
5637,-113.281250
5638,-109.375000
5639,-113.281250
5640,-113.281250
5641,-113.281250
5642,-113.281250
5643,-113.281250
5644,-113.281250
5645,-117.187500
5646,-117.187500
5647,-117.187500
5648,-117.187500
5649,-121.093750
5650,-121.093750
5651,-121.093750
5652,-121.093750
5653,-121.093750
5654,-121.093750
5655,-121.093750
5656,-125.000000
5657,-125.000000
5658,-125.000000
5659,-125.000000
5660,-125.000000
5661,-125.000000
5662,-128.906250
5663,-128.906250
5664,-128.906250
5665,-128.906250
5666,-128.906250
5667,-128.906250
5668,-132.812500
5669,-132.812500
5670,-132.812500
5671,-132.812500
5672,-132.812500
5673,-132.812500
5674,-132.812500
5675,-132.812500
5676,-136.718750
5677,-136.718750
5678,-136.718750
5679,-136.718750
5680,-136.718750
5681,-136.718750
5682,-136.718750
5683,-136.718750
5684,-140.625000
5685,-140.625000
5686,-140.625000
5687,-140.625000
5688,-140.625000
5689,-140.625000
5690,-140.625000
5691,-144.531250
5692,-140.625000
5693,-144.531250
5694,-144.531250
5695,-144.531250
5696,-144.531250
5697,-144.531250
5698,-144.531250
5699,-144.531250
5700,-144.531250
5701,-144.531250
5702,-144.531250
5703,-144.531250
5704,-148.437500
5705,-148.437500
5706,-148.437500
5707,-148.437500
5708,-148.437500
5709,-148.437500
5710,-148.437500
5711,-148.437500
5712,-148.437500
5713,-148.437500
5714,-152.343750
5715,-152.343750
5716,-152.343750
5717,-152.343750
5718,-152.343750
5719,-152.343750
5720,-152.343750
5721,-152.343750
5722,-152.343750
5723,-152.343750
5724,-152.343750
5725,-152.343750
5726,-156.250000
5727,-156.250000
5728,-156.250000
5729,-152.343750
5730,-156.250000
5731,-156.250000
5732,-156.250000
5733,-156.250000
5734,-156.250000
5735,-156.250000
5736,-156.250000
5737,-156.250000
5738,-156.250000
5739,-156.250000
5740,-156.250000
5741,-156.250000
5742,-156.250000
5743,-156.250000
5744,-156.250000
5745,-156.250000
5746,-156.250000
5747,-156.250000
5748,-156.250000
5749,-156.250000
5750,-156.250000
5751,-156.250000
5752,-156.250000
5753,-156.250000
5754,-156.250000
5755,-156.250000
5756,-156.250000
5757,-156.250000
5758,-156.250000
5759,-156.250000
5760,-156.250000
5761,-156.250000
5762,-156.250000
5763,-156.250000
5764,-156.250000
5765,-156.250000
5766,-160.156250
5767,-160.156250
5768,-156.250000
5769,-156.250000
5770,-156.250000
5771,-156.250000
5772,-156.250000
5773,-156.250000
5774,-156.250000
5775,-156.250000
5776,-156.250000
5777,-156.250000
5778,-156.250000
5779,-156.250000
5780,-156.250000
5781,-156.250000
5782,-156.250000
5783,-156.250000
5784,-156.250000
5785,-156.250000
5786,-156.250000
5787,-156.250000
5788,-156.250000
5789,-156.250000
5790,-156.250000
5791,-156.250000
5792,-156.250000
5793,-156.250000
5794,-156.250000
5795,-156.250000
5796,-156.250000
5797,-156.250000
5798,-156.250000
5799,-152.343750
5800,-152.343750
5801,-152.343750
5802,-152.343750
5803,-152.343750
5804,-152.343750
5805,-152.343750
5806,-152.343750
5807,-152.343750
5808,-152.343750
5809,-152.343750
5810,-152.343750
5811,-152.343750
5812,-152.343750
5813,-148.437500
5814,-148.437500
5815,-148.437500
5816,-148.437500
5817,-148.437500
5818,-148.437500
5819,-148.437500
5820,-148.437500
5821,-148.437500
5822,-148.437500
5823,-148.437500
5824,-144.531250
5825,-144.531250
5826,-144.531250
5827,-144.531250
5828,-144.531250
5829,-144.531250
5830,-144.531250
5831,-144.531250
5832,-144.531250
5833,-144.531250
5834,-140.625000
5835,-140.625000
5836,-140.625000
5837,-140.625000
5838,-140.625000
5839,-140.625000
5840,-140.625000
5841,-140.625000
5842,-140.625000
5843,-136.718750
5844,-136.718750
5845,-136.718750
5846,-136.718750
5847,-136.718750
5848,-136.718750
5849,-136.718750
5850,-136.718750
5851,-132.812500
5852,-132.812500
5853,-132.812500
5854,-132.812500
5855,-132.812500
5856,-132.812500
5857,-132.812500
5858,-128.906250
5859,-128.906250
5860,-128.906250
5861,-128.906250
5862,-128.906250
5863,-125.000000
5864,-125.000000
5865,-125.000000
5866,-125.000000
5867,-125.000000
5868,-125.000000
5869,-125.000000
5870,-125.000000
5871,-125.000000
5872,-121.093750
5873,-121.093750
5874,-121.093750
5875,-117.187500
5876,-117.187500
5877,-117.187500
5878,-117.187500
5879,-117.187500
5880,-117.187500
5881,-117.187500
5882,-117.187500
5883,-113.281250
5884,-113.281250
5885,-113.281250
5886,-113.281250
5887,-113.281250
5888,-109.375000
5889,-109.375000
5890,-109.375000
5891,-109.375000
5892,-109.375000
5893,-109.375000
5894,-105.468750
5895,-105.468750
5896,-105.468750
5897,-105.468750
5898,-105.468750
5899,-101.562500
5900,-101.562500
5901,-101.562500
5902,-101.562500
5903,-101.562500
5904,-97.656250
5905,-97.656250
5906,-97.656250
5907,-97.656250
5908,-97.656250
5909,-93.750000
5910,-93.750000
5911,-93.750000
5912,-93.750000
5913,-93.750000
5914,-89.843750
5915,-89.843750
5916,-89.843750
5917,-89.843750
5918,-89.843750
5919,-85.937500
5920,-85.937500
5921,-85.937500
5922,-85.937500
5923,-85.937500
5924,-82.031250
5925,-82.031250
5926,-82.031250
5927,-82.031250
5928,-82.031250
5929,-78.125000
5930,-78.125000
5931,-78.125000
5932,-78.125000
5933,-74.218750
5934,-74.218750
5935,-74.218750
5936,-74.218750
5937,-74.218750
5938,-70.312500
5939,-70.312500
5940,-70.312500
5941,-70.312500
5942,-70.312500
5943,-66.406250
5944,-66.406250
5945,-66.406250
5946,-66.406250
5947,-62.500000
5948,-62.500000
5949,-62.500000
5950,-62.500000
5951,-58.593750
5952,-58.593750
5953,-58.593750
5954,-58.593750
5955,-58.593750
5956,-54.687500
5957,-54.687500
5958,-54.687500
5959,-54.687500
5960,-50.781250
5961,-50.781250
5962,-50.781250
5963,-50.781250
5964,-50.781250
5965,-46.875000
5966,-46.875000
5967,-46.875000
5968,-46.875000
5969,-42.968750
5970,-42.968750
5971,-42.968750
5972,-42.968750
5973,-39.062500
5974,-39.062500
5975,-39.062500
5976,-39.062500
5977,-35.156250
5978,-35.156250
5979,-35.156250
5980,-35.156250
5981,-35.156250
5982,-31.250000
5983,-31.250000
5984,-31.250000
5985,-31.250000
5986,-27.343750
5987,-27.343750
5988,-27.343750
5989,-27.343750
5990,-27.343750
5991,-23.437500
5992,-23.437500
5993,-23.437500
5994,-23.437500
5995,-19.531250
5996,-19.531250
5997,-19.531250
5998,-19.531250
5999,-19.531250
6000,-15.625000
6001,-15.625000
6002,-15.625000
6003,-11.718750
6004,-11.718750
6005,-11.718750
6006,-11.718750
6007,-11.718750
6008,-7.812500
6009,-7.812500
6010,-7.812500
6011,-7.812500
6012,-7.812500
6013,-3.906250
6014,-3.906250
6015,-3.906250
6016,-3.906250
6017,0.000000
6018,0.000000
6019,0.000000
6020,0.000000
6021,0.000000
6022,3.906250
6023,3.906250
6024,3.906250
6025,3.906250
6026,7.812500
6027,7.812500
6028,7.812500
6029,7.812500
6030,7.812500
6031,11.718750
6032,11.718750
6033,11.718750
6034,15.625000
6035,11.718750
6036,15.625000
6037,15.625000
6038,15.625000
6039,15.625000
6040,19.531250
6041,19.531250
6042,19.531250
6043,19.531250
6044,19.531250
6045,23.437500
6046,23.437500
6047,23.437500
6048,23.437500
6049,23.437500
6050,27.343750
6051,27.343750
6052,27.343750
6053,27.343750
6054,31.250000
6055,31.250000
6056,31.250000
6057,35.156250
6058,31.250000
6059,35.156250
6060,35.156250
6061,35.156250
6062,35.156250
6063,35.156250
6064,39.062500
6065,39.062500
6066,39.062500
6067,39.062500
6068,39.062500
6069,42.968750
6070,42.968750
6071,42.968750
6072,42.968750
6073,42.968750
6074,42.968750
6075,46.875000
6076,46.875000
6077,46.875000
6078,46.875000
6079,50.781250
6080,50.781250
6081,50.781250
6082,50.781250
6083,50.781250
6084,54.687500
6085,54.687500
6086,54.687500
6087,54.687500
6088,54.687500
6089,54.687500
6090,58.593750
6091,58.593750
6092,58.593750
6093,58.593750
6094,58.593750
6095,58.593750
6096,62.500000
6097,62.500000
6098,62.500000
6099,62.500000
6100,62.500000
6101,66.406250
6102,66.406250
6103,66.406250
6104,66.406250
6105,66.406250
6106,66.406250
6107,66.406250
6108,70.312500
6109,70.312500
6110,70.312500
6111,70.312500
6112,70.312500
6113,70.312500
6114,74.218750
6115,74.218750
6116,74.218750
6117,74.218750
6118,74.218750
6119,74.218750
6120,74.218750
6121,78.125000
6122,78.125000
6123,78.125000
6124,78.125000
6125,78.125000
6126,78.125000
6127,82.031250
6128,82.031250
6129,82.031250
6130,82.031250
6131,82.031250
6132,82.031250
6133,82.031250
6134,82.031250
6135,85.937500
6136,85.937500
6137,85.937500
6138,85.937500
6139,85.937500
6140,85.937500
6141,85.937500
6142,85.937500
6143,89.843750
6144,89.843750
6145,89.843750
6146,89.843750
6147,89.843750
6148,89.843750
6149,93.750000
6150,93.750000
6151,93.750000
6152,93.750000
6153,93.750000
6154,93.750000
6155,93.750000
6156,93.750000
6157,93.750000
6158,97.656250
6159,97.656250
6160,97.656250
6161,97.656250
6162,97.656250
6163,97.656250
6164,97.656250
6165,97.656250
6166,97.656250
6167,97.656250
6168,101.562500
6169,101.562500
6170,101.562500
6171,101.562500
6172,101.562500
6173,101.562500
6174,101.562500
6175,101.562500
6176,101.562500
6177,101.562500
6178,105.468750
6179,105.468750
6180,105.468750
6181,105.468750
6182,105.468750
6183,105.468750
6184,105.468750
6185,105.468750
6186,105.468750
6187,105.468750
6188,105.468750
6189,105.468750
6190,105.468750
6191,105.468750
6192,109.375000
6193,105.468750
6194,109.375000
6195,109.375000
6196,109.375000
6197,109.375000
6198,109.375000
6199,109.375000
6200,109.375000
6201,109.375000
6202,109.375000
6203,109.375000
6204,109.375000
6205,109.375000
6206,113.281250
6207,113.281250
6208,113.281250
6209,113.281250
6210,113.281250
6211,113.281250
6212,113.281250
6213,113.281250
6214,113.281250
6215,113.281250
6216,113.281250
6217,113.281250
6218,113.281250
6219,113.281250
6220,113.281250
6221,113.281250
6222,113.281250
6223,113.281250
6224,113.281250
6225,117.187500
6226,113.281250
6227,117.187500
6228,117.187500
6229,117.187500
6230,117.187500
6231,117.187500
6232,117.187500
6233,117.187500
6234,117.187500
6235,117.187500
6236,117.187500
6237,117.187500
6238,117.187500
6239,117.187500
6240,117.187500
6241,117.187500
6242,117.187500
6243,117.187500
6244,117.187500
6245,117.187500
6246,117.187500
6247,117.187500
6248,117.187500
6249,117.187500
6250,117.187500
6251,117.187500
6252,117.187500
6253,117.187500
6254,117.187500
6255,117.187500
6256,117.187500
6257,117.187500
6258,117.187500
6259,117.187500
6260,117.187500
6261,117.187500
6262,117.187500
6263,117.187500
6264,117.187500
6265,117.187500
6266,117.187500
6267,117.187500
6268,117.187500
6269,117.187500
6270,117.187500
6271,117.187500
6272,117.187500
6273,117.187500
6274,117.187500
6275,117.187500
6276,117.187500
6277,117.187500
6278,117.187500
6279,117.187500
6280,117.187500
6281,117.187500
6282,117.187500
6283,117.187500
6284,117.187500
6285,117.187500
6286,117.187500
6287,117.187500
6288,117.187500
6289,117.187500
6290,117.187500
6291,117.187500
6292,117.187500
6293,117.187500
6294,113.281250
6295,113.281250
6296,113.281250
6297,113.281250
6298,113.281250
6299,113.281250
6300,113.281250
6301,113.281250
6302,113.281250
6303,113.281250
6304,113.281250
6305,113.281250
6306,113.281250
6307,113.281250
6308,113.281250
6309,113.281250
6310,113.281250
6311,113.281250
6312,113.281250
6313,109.375000
6314,109.375000
6315,109.375000
6316,109.375000
6317,109.375000
6318,109.375000
6319,109.375000
6320,109.375000
6321,109.375000
6322,109.375000
6323,109.375000
6324,109.375000
6325,109.375000
6326,109.375000
6327,109.375000
6328,105.468750
6329,105.468750
6330,105.468750
6331,105.468750
6332,105.468750
6333,105.468750
6334,105.468750
6335,105.468750
6336,105.468750
6337,105.468750
6338,101.562500
6339,105.468750
6340,101.562500
6341,101.562500
6342,101.562500
6343,101.562500
6344,101.562500
6345,101.562500
6346,101.562500
6347,101.562500
6348,101.562500
6349,97.656250
6350,97.656250
6351,97.656250
6352,97.656250
6353,97.656250
6354,97.656250
6355,97.656250
6356,97.656250
6357,97.656250
6358,97.656250
6359,97.656250
6360,93.750000
6361,93.750000
6362,93.750000
6363,93.750000
6364,93.750000
6365,93.750000
6366,93.750000
6367,89.843750
6368,89.843750
6369,89.843750
6370,89.843750
6371,89.843750
6372,89.843750
6373,89.843750
6374,89.843750
6375,85.937500
6376,85.937500
6377,85.937500
6378,85.937500
6379,85.937500
6380,85.937500
6381,85.937500
6382,85.937500
6383,85.937500
6384,82.031250
6385,82.031250
6386,82.031250
6387,82.031250
6388,82.031250
6389,82.031250
6390,78.125000
6391,78.125000
6392,78.125000
6393,78.125000
6394,78.125000
6395,74.218750
6396,78.125000
6397,74.218750
6398,74.218750
6399,74.218750
6400,74.218750
6401,74.218750
6402,74.218750
6403,74.218750
6404,70.312500
6405,70.312500
6406,70.312500
6407,70.312500
6408,70.312500
6409,70.312500
6410,66.406250
6411,66.406250
6412,66.406250
6413,66.406250
6414,66.406250
6415,62.500000
6416,62.500000
6417,62.500000
6418,62.500000
6419,62.500000
6420,58.593750
6421,58.593750
6422,58.593750
6423,58.593750
6424,58.593750
6425,58.593750
6426,58.593750
6427,54.687500
6428,54.687500
6429,54.687500
6430,54.687500
6431,54.687500
6432,54.687500
6433,50.781250
6434,50.781250
6435,50.781250
6436,50.781250
6437,50.781250
6438,46.875000
6439,46.875000
6440,46.875000
6441,46.875000
6442,46.875000
6443,42.968750
6444,42.968750
6445,42.968750
6446,42.968750
6447,42.968750
6448,39.062500
6449,39.062500
6450,39.062500
6451,39.062500
6452,39.062500
6453,39.062500
6454,35.156250
6455,35.156250
6456,35.156250
6457,35.156250
6458,31.250000
6459,31.250000
6460,31.250000
6461,31.250000
6462,31.250000
6463,27.343750
6464,27.343750
6465,27.343750
6466,27.343750
6467,23.437500
6468,23.437500
6469,23.437500
6470,23.437500
6471,23.437500
6472,19.531250
6473,19.531250
6474,19.531250
6475,19.531250
6476,19.531250
6477,15.625000
6478,15.625000
6479,15.625000
6480,15.625000
6481,15.625000
6482,11.718750
6483,11.718750
6484,11.718750
6485,11.718750
6486,7.812500
6487,7.812500
6488,7.812500
6489,7.812500
6490,7.812500
6491,3.906250
6492,3.906250
6493,3.906250
6494,3.906250
6495,0.000000
6496,0.000000
6497,0.000000
6498,0.000000
6499,-3.906250
6500,-3.906250
6501,-3.906250
6502,-3.906250
6503,-3.906250
6504,-7.812500
6505,-7.812500
6506,-7.812500
6507,-7.812500
6508,-11.718750
6509,-11.718750
6510,-11.718750
6511,-11.718750
6512,-11.718750
6513,-15.625000
6514,-15.625000
6515,-15.625000
6516,-15.625000
6517,-19.531250
6518,-19.531250
6519,-19.531250
6520,-19.531250
6521,-19.531250
6522,-23.437500
6523,-23.437500
6524,-23.437500
6525,-23.437500
6526,-27.343750
6527,-27.343750
6528,-27.343750
6529,-27.343750
6530,-31.250000
6531,-31.250000
6532,-31.250000
6533,-31.250000
6534,-35.156250
6535,-35.156250
6536,-35.156250
6537,-35.156250
6538,-39.062500
6539,-39.062500
6540,-39.062500
6541,-39.062500
6542,-39.062500
6543,-42.968750
6544,-42.968750
6545,-42.968750
6546,-42.968750
6547,-42.968750
6548,-46.875000
6549,-46.875000
6550,-46.875000
6551,-46.875000
6552,-50.781250
6553,-50.781250
6554,-50.781250
6555,-50.781250
6556,-50.781250
6557,-54.687500
6558,-54.687500
6559,-54.687500
6560,-58.593750
6561,-58.593750
6562,-54.687500
6563,-58.593750
6564,-58.593750
6565,-58.593750
6566,-62.500000
6567,-62.500000
6568,-62.500000
6569,-66.406250
6570,-66.406250
6571,-66.406250
6572,-66.406250
6573,-66.406250
6574,-66.406250
6575,-70.312500
6576,-70.312500
6577,-70.312500
6578,-74.218750
6579,-74.218750
6580,-74.218750
6581,-74.218750
6582,-74.218750
6583,-78.125000
6584,-78.125000
6585,-78.125000
6586,-78.125000
6587,-82.031250
6588,-82.031250
6589,-82.031250
6590,-82.031250
6591,-82.031250
6592,-85.937500
6593,-85.937500
6594,-85.937500
6595,-85.937500
6596,-85.937500
6597,-89.843750
6598,-89.843750
6599,-89.843750
6600,-89.843750
6601,-89.843750
6602,-89.843750
6603,-93.750000
6604,-93.750000
6605,-93.750000
6606,-97.656250
6607,-97.656250
6608,-97.656250
6609,-97.656250
6610,-97.656250
6611,-97.656250
6612,-101.562500
6613,-97.656250
6614,-101.562500
6615,-101.562500
6616,-101.562500
6617,-105.468750
6618,-105.468750
6619,-105.468750
6620,-105.468750
6621,-105.468750
6622,-105.468750
6623,-109.375000
6624,-109.375000
6625,-109.375000
6626,-109.375000
6627,-109.375000
6628,-109.375000
6629,-113.281250
6630,-113.281250
6631,-113.281250
6632,-113.281250
6633,-113.281250
6634,-117.187500
6635,-117.187500
6636,-117.187500
6637,-117.187500
6638,-117.187500
6639,-117.187500
6640,-117.187500
6641,-121.093750
6642,-121.093750
6643,-121.093750
6644,-121.093750
6645,-121.093750
6646,-125.000000
6647,-125.000000
6648,-125.000000
6649,-125.000000
6650,-125.000000
6651,-125.000000
6652,-125.000000
6653,-128.906250
6654,-128.906250
6655,-128.906250
6656,-128.906250
6657,-128.906250
6658,-128.906250
6659,-128.906250
6660,-132.812500
6661,-132.812500
6662,-132.812500
6663,-132.812500
6664,-132.812500
6665,-132.812500
6666,-132.812500
6667,-136.718750
6668,-136.718750
6669,-136.718750
6670,-136.718750
6671,-136.718750
6672,-136.718750
6673,-136.718750
6674,-140.625000
6675,-136.718750
6676,-140.625000
6677,-140.625000
6678,-140.625000
6679,-140.625000
6680,-140.625000
6681,-140.625000
6682,-140.625000
6683,-144.531250
6684,-144.531250
6685,-144.531250
6686,-144.531250
6687,-144.531250
6688,-144.531250
6689,-144.531250
6690,-144.531250
6691,-144.531250
6692,-144.531250
6693,-148.437500
6694,-148.437500
6695,-148.437500
6696,-148.437500
6697,-148.437500
6698,-148.437500
6699,-148.437500
6700,-148.437500
6701,-148.437500
6702,-148.437500
6703,-148.437500
6704,-152.343750
6705,-152.343750
6706,-152.343750
6707,-152.343750
6708,-152.343750
6709,-152.343750
6710,-152.343750
6711,-152.343750
6712,-152.343750
6713,-152.343750
6714,-152.343750
6715,-152.343750
6716,-152.343750
6717,-152.343750
6718,-152.343750
6719,-156.250000
6720,-152.343750
6721,-152.343750
6722,-152.343750
6723,-156.250000
6724,-156.250000
6725,-156.250000
6726,-156.250000
6727,-156.250000
6728,-156.250000
6729,-156.250000
6730,-156.250000
6731,-156.250000
6732,-156.250000
6733,-156.250000
6734,-156.250000
6735,-156.250000
6736,-156.250000
6737,-156.250000
6738,-156.250000
6739,-156.250000
6740,-156.250000
6741,-156.250000
6742,-156.250000
6743,-156.250000
6744,-156.250000
6745,-156.250000
6746,-156.250000
6747,-156.250000
6748,-156.250000
6749,-156.250000
6750,-156.250000
6751,-156.250000
6752,-156.250000
6753,-156.250000
6754,-156.250000
6755,-156.250000
6756,-156.250000
6757,-156.250000
6758,-156.250000
6759,-156.250000
6760,-156.250000
6761,-156.250000
6762,-156.250000
6763,-156.250000
6764,-156.250000
6765,-156.250000
6766,-156.250000
6767,-156.250000
6768,-156.250000
6769,-156.250000
6770,-156.250000
6771,-156.250000
6772,-156.250000
6773,-156.250000
6774,-156.250000
6775,-156.250000
6776,-156.250000
6777,-156.250000
6778,-156.250000
6779,-156.250000
6780,-156.250000
6781,-156.250000
6782,-152.343750
6783,-152.343750
6784,-156.250000
6785,-152.343750
6786,-152.343750
6787,-152.343750
6788,-152.343750
6789,-152.343750
6790,-152.343750
6791,-152.343750
6792,-152.343750
6793,-152.343750
6794,-152.343750
6795,-152.343750
6796,-152.343750
6797,-152.343750
6798,-152.343750
6799,-148.437500
6800,-148.437500
6801,-152.343750
6802,-148.437500
6803,-148.437500
6804,-148.437500
6805,-148.437500
6806,-148.437500
6807,-148.437500
6808,-148.437500
6809,-144.531250
6810,-148.437500
6811,-148.437500
6812,-148.437500
6813,-144.531250
6814,-144.531250
6815,-144.531250
6816,-144.531250
6817,-144.531250
6818,-144.531250
6819,-144.531250
6820,-144.531250
6821,-140.625000
6822,-140.625000
6823,-140.625000
6824,-140.625000
6825,-140.625000
6826,-140.625000
6827,-140.625000
6828,-140.625000
6829,-140.625000
6830,-136.718750
6831,-136.718750
6832,-136.718750
6833,-136.718750
6834,-136.718750
6835,-136.718750
6836,-136.718750
6837,-136.718750
6838,-136.718750
6839,-132.812500
6840,-132.812500
6841,-132.812500
6842,-132.812500
6843,-132.812500
6844,-132.812500
6845,-132.812500
6846,-128.906250
6847,-128.906250
6848,-128.906250
6849,-128.906250
6850,-128.906250
6851,-128.906250
6852,-128.906250
6853,-125.000000
6854,-125.000000
6855,-125.000000
6856,-125.000000
6857,-125.000000
6858,-125.000000
6859,-121.093750
6860,-121.093750
6861,-121.093750
6862,-121.093750
6863,-121.093750
6864,-117.187500
6865,-117.187500
6866,-117.187500
6867,-117.187500
6868,-117.187500
6869,-117.187500
6870,-117.187500
6871,-117.187500
6872,-113.281250
6873,-113.281250
6874,-113.281250
6875,-113.281250
6876,-113.281250
6877,-109.375000
6878,-109.375000
6879,-109.375000
6880,-109.375000
6881,-109.375000
6882,-109.375000
6883,-105.468750
6884,-105.468750
6885,-105.468750
6886,-105.468750
6887,-101.562500
6888,-101.562500
6889,-101.562500
6890,-101.562500
6891,-101.562500
6892,-101.562500
6893,-97.656250
6894,-97.656250
6895,-97.656250
6896,-97.656250
6897,-97.656250
6898,-93.750000
6899,-93.750000
6900,-93.750000
6901,-93.750000
6902,-93.750000
6903,-89.843750
6904,-89.843750
6905,-89.843750
6906,-89.843750
6907,-85.937500
6908,-89.843750
6909,-85.937500
6910,-85.937500
6911,-85.937500
6912,-85.937500
6913,-82.031250
6914,-82.031250
6915,-82.031250
6916,-82.031250
6917,-78.125000
6918,-78.125000
6919,-78.125000
6920,-78.125000
6921,-78.125000
6922,-78.125000
6923,-74.218750
6924,-74.218750
6925,-74.218750
6926,-70.312500
6927,-70.312500
6928,-70.312500
6929,-70.312500
6930,-70.312500
6931,-70.312500
6932,-70.312500
6933,-66.406250
6934,-66.406250
6935,-66.406250
6936,-62.500000
6937,-62.500000
6938,-62.500000
6939,-62.500000
6940,-62.500000
6941,-58.593750
6942,-58.593750
6943,-58.593750
6944,-58.593750
6945,-58.593750
6946,-54.687500
6947,-54.687500
6948,-54.687500
6949,-54.687500
6950,-50.781250
6951,-50.781250
6952,-50.781250
6953,-50.781250
6954,-46.875000
6955,-46.875000
6956,-46.875000
6957,-46.875000
6958,-46.875000
6959,-42.968750
6960,-42.968750
6961,-42.968750
6962,-42.968750
6963,-39.062500
6964,-39.062500
6965,-39.062500
6966,-39.062500
6967,-39.062500
6968,-35.156250
6969,-35.156250
6970,-35.156250
6971,-31.250000
6972,-31.250000
6973,-31.250000
6974,-31.250000
6975,-31.250000
6976,-27.343750
6977,-27.343750
6978,-27.343750
6979,-27.343750
6980,-23.437500
6981,-23.437500
6982,-23.437500
6983,-23.437500
6984,-23.437500
6985,-23.437500
6986,-19.531250
6987,-19.531250
6988,-19.531250
6989,-15.625000
6990,-15.625000
6991,-15.625000
6992,-15.625000
6993,-15.625000
6994,-11.718750
6995,-11.718750
6996,-11.718750
6997,-11.718750
6998,-7.812500
6999,-7.812500
7000,-7.812500
7001,-7.812500
7002,-7.812500
7003,-3.906250
7004,-3.906250
7005,-3.906250
7006,0.000000
7007,0.000000
7008,0.000000
7009,0.000000
7010,0.000000
7011,0.000000
7012,3.906250
7013,3.906250
7014,3.906250
7015,3.906250
7016,7.812500
7017,7.812500
7018,7.812500
7019,7.812500
7020,7.812500
7021,11.718750
7022,11.718750
7023,11.718750
7024,11.718750
7025,15.625000
7026,15.625000
7027,15.625000
7028,15.625000
7029,15.625000
7030,19.531250
7031,19.531250
7032,19.531250
7033,19.531250
7034,19.531250
7035,23.437500
7036,23.437500
7037,23.437500
7038,23.437500
7039,27.343750
7040,27.343750
7041,27.343750
7042,27.343750
7043,27.343750
7044,31.250000
7045,31.250000
7046,31.250000
7047,31.250000
7048,31.250000
7049,35.156250
7050,35.156250
7051,35.156250
7052,35.156250
7053,35.156250
7054,39.062500
7055,39.062500
7056,39.062500
7057,39.062500
7058,39.062500
7059,42.968750
7060,42.968750
7061,42.968750
7062,42.968750
7063,42.968750
7064,42.968750
7065,46.875000
7066,46.875000
7067,46.875000
7068,46.875000
7069,50.781250
7070,50.781250
7071,50.781250
7072,50.781250
7073,50.781250
7074,50.781250
7075,54.687500
7076,54.687500
7077,54.687500
7078,54.687500
7079,54.687500
7080,54.687500
7081,58.593750
7082,58.593750
7083,58.593750
7084,58.593750
7085,58.593750
7086,62.500000
7087,62.500000
7088,62.500000
7089,62.500000
7090,62.500000
7091,62.500000
7092,66.406250
7093,66.406250
7094,66.406250
7095,66.406250
7096,66.406250
7097,70.312500
7098,66.406250
7099,70.312500
7100,70.312500
7101,70.312500
7102,70.312500
7103,70.312500
7104,70.312500
7105,74.218750
7106,74.218750
7107,74.218750
7108,74.218750
7109,74.218750
7110,74.218750
7111,78.125000
7112,78.125000
7113,78.125000
7114,78.125000
7115,78.125000
7116,78.125000
7117,82.031250
7118,82.031250
7119,82.031250
7120,82.031250
7121,82.031250
7122,82.031250
7123,82.031250
7124,82.031250
7125,82.031250
7126,85.937500
7127,85.937500
7128,85.937500
7129,85.937500
7130,85.937500
7131,85.937500
7132,89.843750
7133,89.843750
7134,89.843750
7135,89.843750
7136,89.843750
7137,89.843750
7138,89.843750
7139,93.750000
7140,93.750000
7141,93.750000
7142,93.750000
7143,93.750000
7144,93.750000
7145,93.750000
7146,93.750000
7147,93.750000
7148,97.656250
7149,97.656250
7150,97.656250
7151,97.656250
7152,97.656250
7153,97.656250
7154,97.656250
7155,97.656250
7156,97.656250
7157,101.562500
7158,101.562500
7159,101.562500
7160,101.562500
7161,101.562500
7162,101.562500
7163,101.562500
7164,101.562500
7165,101.562500
7166,101.562500
7167,105.468750
7168,105.468750
7169,101.562500
7170,105.468750
7171,105.468750
7172,105.468750
7173,105.468750
7174,105.468750
7175,105.468750
7176,105.468750
7177,105.468750
7178,109.375000
7179,105.468750
7180,109.375000
7181,109.375000
7182,109.375000
7183,109.375000
7184,109.375000
7185,109.375000
7186,109.375000
7187,109.375000
7188,109.375000
7189,109.375000
7190,109.375000
7191,109.375000
7192,109.375000
7193,109.375000
7194,113.281250
7195,113.281250
7196,113.281250
7197,113.281250
7198,113.281250
7199,113.281250
7200,113.281250
7201,113.281250
7202,113.281250
7203,113.281250
7204,113.281250
7205,113.281250
7206,113.281250
7207,113.281250
7208,113.281250
7209,113.281250
7210,113.281250
7211,113.281250
7212,113.281250
7213,113.281250
7214,113.281250
7215,113.281250
7216,117.187500
7217,117.187500
7218,117.187500
7219,117.187500
7220,117.187500
7221,117.187500
7222,117.187500
7223,117.187500
7224,117.187500
7225,117.187500
7226,117.187500
7227,117.187500
7228,117.187500
7229,117.187500
7230,117.187500
7231,117.187500
7232,117.187500
7233,117.187500
7234,117.187500
7235,117.187500
7236,117.187500
7237,117.187500
7238,117.187500
7239,117.187500
7240,117.187500
7241,117.187500
7242,117.187500
7243,117.187500
7244,117.187500
7245,117.187500
7246,117.187500
7247,117.187500
7248,117.187500
7249,117.187500
7250,117.187500
7251,117.187500
7252,117.187500
7253,117.187500
7254,117.187500
7255,117.187500
7256,117.187500
7257,117.187500
7258,117.187500
7259,117.187500
7260,117.187500
7261,117.187500
7262,117.187500
7263,117.187500
7264,117.187500
7265,117.187500
7266,117.187500
7267,117.187500
7268,117.187500
7269,117.187500
7270,117.187500
7271,117.187500
7272,117.187500
7273,117.187500
7274,117.187500
7275,117.187500
7276,117.187500
7277,117.187500
7278,117.187500
7279,117.187500
7280,113.281250
7281,117.187500
7282,117.187500
7283,117.187500
7284,117.187500
7285,117.187500
7286,113.281250
7287,117.187500
7288,113.281250
7289,113.281250
7290,113.281250
7291,113.281250
7292,113.281250
7293,113.281250
7294,113.281250
7295,113.281250
7296,113.281250
7297,113.281250
7298,113.281250
7299,113.281250
7300,113.281250
7301,113.281250
7302,113.281250
7303,113.281250
7304,113.281250
7305,113.281250
7306,109.375000
7307,109.375000
7308,109.375000
7309,109.375000
7310,109.375000
7311,109.375000
7312,109.375000
7313,109.375000
7314,109.375000
7315,109.375000
7316,109.375000
7317,109.375000
7318,109.375000
7319,109.375000
7320,105.468750
7321,105.468750
7322,105.468750
7323,105.468750
7324,105.468750
7325,105.468750
7326,105.468750
7327,105.468750
7328,105.468750
7329,105.468750
7330,105.468750
7331,105.468750
7332,101.562500
7333,101.562500
7334,101.562500
7335,101.562500
7336,101.562500
7337,101.562500
7338,101.562500
7339,101.562500
7340,101.562500
7341,97.656250
7342,97.656250
7343,97.656250
7344,97.656250
7345,97.656250
7346,97.656250
7347,97.656250
7348,97.656250
7349,97.656250
7350,97.656250
7351,93.750000
7352,93.750000
7353,93.750000
7354,93.750000
7355,93.750000
7356,93.750000
7357,93.750000
7358,93.750000
7359,89.843750
7360,89.843750
7361,89.843750
7362,89.843750
7363,89.843750
7364,89.843750
7365,89.843750
7366,89.843750
7367,85.937500
7368,85.937500
7369,85.937500
7370,85.937500
7371,85.937500
7372,85.937500
7373,85.937500
7374,82.031250
7375,82.031250
7376,82.031250
7377,82.031250
7378,82.031250
7379,82.031250
7380,82.031250
7381,82.031250
7382,78.125000
7383,78.125000
7384,78.125000
7385,78.125000
7386,78.125000
7387,78.125000
7388,78.125000
7389,74.218750
7390,74.218750
7391,74.218750
7392,74.218750
7393,74.218750
7394,70.312500
7395,70.312500
7396,70.312500
7397,70.312500
7398,70.312500
7399,70.312500
7400,70.312500
7401,66.406250
7402,66.406250
7403,66.406250
7404,66.406250
7405,66.406250
7406,62.500000
7407,62.500000
7408,62.500000
7409,62.500000
7410,62.500000
7411,62.500000
7412,62.500000
7413,58.593750
7414,58.593750
7415,58.593750
7416,58.593750
7417,58.593750
7418,58.593750
7419,54.687500
7420,54.687500
7421,54.687500
7422,54.687500
7423,50.781250
7424,50.781250
7425,50.781250
7426,50.781250
7427,50.781250
7428,50.781250
7429,46.875000
7430,46.875000
7431,46.875000
7432,46.875000
7433,46.875000
7434,46.875000
7435,42.968750
7436,42.968750
7437,42.968750
7438,42.968750
7439,39.062500
7440,39.062500
7441,39.062500
7442,39.062500
7443,35.156250
7444,35.156250
7445,35.156250
7446,35.156250
7447,35.156250
7448,35.156250
7449,31.250000
7450,31.250000
7451,31.250000
7452,31.250000
7453,27.343750
7454,27.343750
7455,27.343750
7456,27.343750
7457,27.343750
7458,23.437500
7459,23.437500
7460,23.437500
7461,23.437500
7462,23.437500
7463,19.531250
7464,19.531250
7465,19.531250
7466,19.531250
7467,19.531250
7468,15.625000
7469,15.625000
7470,15.625000
7471,15.625000
7472,11.718750
7473,11.718750
7474,11.718750
7475,11.718750
7476,11.718750
7477,11.718750
7478,7.812500
7479,7.812500
7480,7.812500
7481,3.906250
7482,3.906250
7483,3.906250
7484,3.906250
7485,3.906250
7486,0.000000
7487,0.000000
7488,0.000000
7489,-3.906250
7490,-3.906250
7491,-3.906250
7492,-3.906250
7493,-3.906250
7494,-7.812500
7495,-7.812500
7496,-7.812500
7497,-7.812500
7498,-7.812500
7499,-11.718750
7500,-11.718750
7501,-11.718750
7502,-11.718750
7503,-11.718750
7504,-15.625000
7505,-15.625000
7506,-15.625000
7507,-15.625000
7508,-19.531250
7509,-19.531250
7510,-19.531250
7511,-23.437500
7512,-23.437500
7513,-23.437500
7514,-23.437500
7515,-23.437500
7516,-27.343750
7517,-27.343750
7518,-27.343750
7519,-27.343750
7520,-27.343750
7521,-31.250000
7522,-31.250000
7523,-31.250000
7524,-31.250000
7525,-35.156250
7526,-35.156250
7527,-35.156250
7528,-35.156250
7529,-39.062500
7530,-39.062500
7531,-39.062500
7532,-39.062500
7533,-39.062500
7534,-42.968750
7535,-42.968750
7536,-42.968750
7537,-42.968750
7538,-46.875000
7539,-46.875000
7540,-46.875000
7541,-46.875000
7542,-50.781250
7543,-50.781250
7544,-50.781250
7545,-50.781250
7546,-50.781250
7547,-50.781250
7548,-54.687500
7549,-54.687500
7550,-54.687500
7551,-58.593750
7552,-58.593750
7553,-58.593750
7554,-58.593750
7555,-58.593750
7556,-62.500000
7557,-62.500000
7558,-62.500000
7559,-62.500000
7560,-66.406250
7561,-66.406250
7562,-66.406250
7563,-66.406250
7564,-70.312500
7565,-70.312500
7566,-70.312500
7567,-70.312500
7568,-70.312500
7569,-74.218750
7570,-74.218750
7571,-74.218750
7572,-74.218750
7573,-74.218750
7574,-74.218750
7575,-78.125000
7576,-78.125000
7577,-78.125000
7578,-82.031250
7579,-82.031250
7580,-82.031250
7581,-82.031250
7582,-82.031250
7583,-82.031250
7584,-85.937500
7585,-85.937500
7586,-85.937500
7587,-89.843750
7588,-89.843750
7589,-89.843750
7590,-89.843750
7591,-89.843750
7592,-93.750000
7593,-93.750000
7594,-93.750000
7595,-93.750000
7596,-93.750000
7597,-93.750000
7598,-97.656250
7599,-97.656250
7600,-97.656250
7601,-97.656250
7602,-97.656250
7603,-97.656250
7604,-101.562500
7605,-101.562500
7606,-101.562500
7607,-105.468750
7608,-105.468750
7609,-101.562500
7610,-105.468750
7611,-105.468750
7612,-109.375000
7613,-109.375000
7614,-109.375000
7615,-109.375000
7616,-109.375000
7617,-109.375000
7618,-109.375000
7619,-113.281250
7620,-113.281250
7621,-113.281250
7622,-113.281250
7623,-113.281250
7624,-113.281250
7625,-117.187500
7626,-117.187500
7627,-117.187500
7628,-117.187500
7629,-117.187500
7630,-117.187500
7631,-121.093750
7632,-121.093750
7633,-121.093750
7634,-121.093750
7635,-121.093750
7636,-125.000000
7637,-125.000000
7638,-121.093750
7639,-125.000000
7640,-125.000000
7641,-125.000000
7642,-125.000000
7643,-128.906250
7644,-128.906250
7645,-128.906250
7646,-128.906250
7647,-128.906250
7648,-128.906250
7649,-128.906250
7650,-132.812500
7651,-132.812500
7652,-128.906250
7653,-136.718750
7654,-132.812500
7655,-132.812500
7656,-132.812500
7657,-132.812500
7658,-136.718750
7659,-136.718750
7660,-136.718750
7661,-136.718750
7662,-136.718750
7663,-136.718750
7664,-136.718750
7665,-136.718750
7666,-140.625000
7667,-140.625000
7668,-140.625000
7669,-140.625000
7670,-140.625000
7671,-140.625000
7672,-140.625000
7673,-140.625000
7674,-140.625000
7675,-144.531250
7676,-144.531250
7677,-144.531250
7678,-144.531250
7679,-144.531250
7680,-144.531250
7681,-144.531250
7682,-144.531250
7683,-144.531250
7684,-148.437500
7685,-148.437500
7686,-148.437500
7687,-148.437500
7688,-148.437500
7689,-148.437500
7690,-148.437500
7691,-148.437500
7692,-148.437500
7693,-148.437500
7694,-148.437500
7695,-152.343750
7696,-152.343750
7697,-152.343750
7698,-148.437500
7699,-148.437500
7700,-152.343750
7701,-152.343750
7702,-152.343750
7703,-152.343750
7704,-152.343750
7705,-152.343750
7706,-152.343750
7707,-152.343750
7708,-152.343750
7709,-152.343750
7710,-152.343750
7711,-152.343750
7712,-152.343750
7713,-156.250000
7714,-156.250000
7715,-156.250000
7716,-156.250000
7717,-156.250000
7718,-156.250000
7719,-156.250000
7720,-156.250000
7721,-156.250000
7722,-156.250000
7723,-156.250000
7724,-156.250000
7725,-156.250000
7726,-156.250000
7727,-156.250000
7728,-156.250000
7729,-156.250000
7730,-160.156250
7731,-160.156250
7732,-156.250000
7733,-156.250000
7734,-156.250000
7735,-156.250000
7736,-160.156250
7737,-156.250000
7738,-156.250000
7739,-160.156250
7740,-156.250000
7741,-156.250000
7742,-160.156250
7743,-156.250000
7744,-156.250000
7745,-160.156250
7746,-160.156250
7747,-156.250000
7748,-156.250000
7749,-156.250000
7750,-156.250000
7751,-156.250000
7752,-160.156250
7753,-156.250000
7754,-156.250000
7755,-156.250000
7756,-156.250000
7757,-156.250000
7758,-156.250000
7759,-156.250000
7760,-156.250000
7761,-156.250000
7762,-156.250000
7763,-156.250000
7764,-156.250000
7765,-156.250000
7766,-156.250000
7767,-156.250000
7768,-156.250000
7769,-156.250000
7770,-156.250000
7771,-156.250000
7772,-156.250000
7773,-156.250000
7774,-156.250000
7775,-156.250000
7776,-152.343750
7777,-152.343750
7778,-152.343750
7779,-152.343750
7780,-152.343750
7781,-152.343750
7782,-152.343750
7783,-152.343750
7784,-152.343750
7785,-152.343750
7786,-152.343750
7787,-152.343750
7788,-152.343750
7789,-152.343750
7790,-148.437500
7791,-148.437500
7792,-148.437500
7793,-148.437500
7794,-148.437500
7795,-148.437500
7796,-148.437500
7797,-148.437500
7798,-148.437500
7799,-148.437500
7800,-148.437500
7801,-148.437500
7802,-148.437500
7803,-148.437500
7804,-144.531250
7805,-144.531250
7806,-144.531250
7807,-144.531250
7808,-144.531250
7809,-144.531250
7810,-144.531250
7811,-144.531250
7812,-144.531250
7813,-140.625000
7814,-140.625000
7815,-140.625000
7816,-140.625000
7817,-140.625000
7818,-140.625000
7819,-140.625000
7820,-136.718750
7821,-136.718750
7822,-136.718750
7823,-136.718750
7824,-136.718750
7825,-136.718750
7826,-136.718750
7827,-136.718750
7828,-136.718750
7829,-132.812500
7830,-132.812500
7831,-132.812500
7832,-132.812500
7833,-132.812500
7834,-132.812500
7835,-132.812500
7836,-132.812500
7837,-128.906250
7838,-128.906250
7839,-128.906250
7840,-128.906250
7841,-128.906250
7842,-128.906250
7843,-125.000000
7844,-125.000000
7845,-125.000000
7846,-125.000000
7847,-125.000000
7848,-125.000000
7849,-121.093750
7850,-121.093750
7851,-121.093750
7852,-121.093750
7853,-121.093750
7854,-121.093750
7855,-121.093750
7856,-117.187500
7857,-117.187500
7858,-117.187500
7859,-117.187500
7860,-117.187500
7861,-117.187500
7862,-113.281250
7863,-113.281250
7864,-113.281250
7865,-113.281250
7866,-113.281250
7867,-109.375000
7868,-109.375000
7869,-109.375000
7870,-109.375000
7871,-109.375000
7872,-109.375000
7873,-105.468750
7874,-105.468750
7875,-105.468750
7876,-105.468750
7877,-105.468750
7878,-105.468750
7879,-101.562500
7880,-101.562500
7881,-101.562500
7882,-101.562500
7883,-101.562500
7884,-97.656250
7885,-97.656250
7886,-97.656250
7887,-97.656250
7888,-93.750000
7889,-93.750000
7890,-93.750000
7891,-93.750000
7892,-89.843750
7893,-93.750000
7894,-89.843750
7895,-89.843750
7896,-89.843750
7897,-89.843750
7898,-89.843750
7899,-85.937500
7900,-85.937500
7901,-85.937500
7902,-85.937500
7903,-85.937500
7904,-82.031250
7905,-82.031250
7906,-82.031250
7907,-78.125000
7908,-78.125000
7909,-78.125000
7910,-78.125000
7911,-78.125000
7912,-78.125000
7913,-74.218750
7914,-74.218750
7915,-74.218750
7916,-74.218750
7917,-70.312500
7918,-70.312500
7919,-70.312500
7920,-70.312500
7921,-70.312500
7922,-66.406250
7923,-66.406250
7924,-66.406250
7925,-66.406250
7926,-62.500000
7927,-62.500000
7928,-62.500000
7929,-62.500000
7930,-62.500000
7931,-58.593750
7932,-58.593750
7933,-58.593750
7934,-58.593750
7935,-54.687500
7936,-54.687500
7937,-54.687500
7938,-54.687500
7939,-50.781250
7940,-50.781250
7941,-50.781250
7942,-46.875000
7943,-46.875000
7944,-46.875000
7945,-46.875000
7946,-46.875000
7947,-46.875000
7948,-46.875000
7949,-46.875000
7950,-42.968750
7951,-42.968750
7952,-42.968750
7953,-39.062500
7954,-39.062500
7955,-39.062500
7956,-39.062500
7957,-35.156250
7958,-35.156250
7959,-35.156250
7960,-35.156250
7961,-31.250000
7962,-31.250000
7963,-31.250000
7964,-31.250000
7965,-31.250000
7966,-27.343750
7967,-27.343750
7968,-31.250000
7969,-27.343750
7970,-23.437500
7971,-23.437500
7972,-23.437500
7973,-23.437500
7974,-23.437500
7975,-19.531250
7976,-19.531250
7977,-19.531250
7978,-19.531250
7979,-15.625000
7980,-15.625000
7981,-15.625000
7982,-15.625000
7983,-11.718750
7984,-11.718750
7985,-11.718750
7986,-11.718750
7987,-11.718750
7988,-11.718750
7989,-7.812500
7990,-7.812500
7991,-7.812500
7992,-3.906250
7993,-3.906250
7994,-3.906250
7995,-3.906250
7996,-3.906250
7997,0.000000
7998,0.000000
7999,0.000000
8000,0.000000
8001,3.906250
8002,3.906250
8003,3.906250
8004,3.906250
8005,7.812500
8006,7.812500
8007,3.906250
8008,7.812500
8009,7.812500
8010,7.812500
8011,15.625000
8012,11.718750
8013,11.718750
8014,15.625000
8015,15.625000
8016,11.718750
8017,15.625000
8018,15.625000
8019,15.625000
8020,19.531250
8021,19.531250
8022,19.531250
8023,19.531250
8024,23.437500
8025,23.437500
8026,23.437500
8027,23.437500
8028,23.437500
8029,27.343750
8030,27.343750
8031,27.343750
8032,27.343750
8033,31.250000
8034,31.250000
8035,31.250000
8036,31.250000
8037,31.250000
8038,31.250000
8039,35.156250
8040,35.156250
8041,35.156250
8042,35.156250
8043,39.062500
8044,39.062500
8045,39.062500
8046,39.062500
8047,39.062500
8048,42.968750
8049,42.968750
8050,42.968750
8051,42.968750
8052,42.968750
8053,46.875000
8054,46.875000
8055,46.875000
8056,46.875000
8057,46.875000
8058,46.875000
8059,50.781250
8060,50.781250
8061,50.781250
8062,50.781250
8063,50.781250
8064,54.687500
8065,54.687500
8066,54.687500
8067,54.687500
8068,54.687500
8069,58.593750
8070,58.593750
8071,58.593750
8072,58.593750
8073,58.593750
8074,58.593750
8075,62.500000
8076,62.500000
8077,62.500000
8078,62.500000
8079,62.500000
8080,62.500000
8081,66.406250
8082,66.406250
8083,66.406250
8084,66.406250
8085,66.406250
8086,70.312500
8087,66.406250
8088,70.312500
8089,70.312500
8090,70.312500
8091,70.312500
8092,70.312500
8093,70.312500
8094,74.218750
8095,74.218750
8096,74.218750
8097,74.218750
8098,74.218750
8099,74.218750
8100,78.125000
8101,78.125000
8102,78.125000
8103,78.125000
8104,78.125000
8105,78.125000
8106,78.125000
8107,82.031250
8108,82.031250
8109,82.031250
8110,82.031250
8111,82.031250
8112,82.031250
8113,82.031250
8114,85.937500
8115,85.937500
8116,85.937500
8117,85.937500
8118,85.937500
8119,85.937500
8120,85.937500
8121,89.843750
8122,89.843750
8123,89.843750
8124,89.843750
8125,89.843750
8126,89.843750
8127,89.843750
8128,89.843750
8129,89.843750
8130,93.750000
8131,93.750000
8132,93.750000
8133,93.750000
8134,93.750000
8135,93.750000
8136,93.750000
8137,93.750000
8138,97.656250
8139,97.656250
8140,97.656250
8141,97.656250
8142,97.656250
8143,97.656250
8144,97.656250
8145,97.656250
8146,97.656250
8147,101.562500
8148,101.562500
8149,101.562500
8150,101.562500
8151,101.562500
8152,101.562500
8153,101.562500
8154,101.562500
8155,101.562500
8156,105.468750
8157,101.562500
8158,105.468750
8159,105.468750
8160,105.468750
8161,105.468750
8162,105.468750
8163,105.468750
8164,105.468750
8165,105.468750
8166,105.468750
8167,105.468750
8168,109.375000
8169,109.375000
8170,109.375000
8171,109.375000
8172,109.375000
8173,109.375000
8174,109.375000
8175,109.375000
8176,109.375000
8177,109.375000
8178,109.375000
8179,109.375000
8180,109.375000
8181,109.375000
8182,109.375000
8183,109.375000
8184,113.281250
8185,113.281250
8186,113.281250
8187,113.281250
8188,113.281250
8189,113.281250
8190,113.281250
8191,113.281250
8192,113.281250
8193,113.281250
8194,113.281250
8195,113.281250
8196,113.281250
8197,113.281250
8198,117.187500
8199,113.281250
8200,113.281250
8201,113.281250
8202,113.281250
8203,113.281250
8204,117.187500
8205,117.187500
8206,117.187500
8207,117.187500
8208,117.187500
8209,117.187500
8210,117.187500
8211,117.187500
8212,117.187500
8213,117.187500
8214,117.187500
8215,117.187500
8216,117.187500
8217,117.187500
8218,117.187500
8219,117.187500
8220,117.187500
8221,117.187500
8222,117.187500
8223,117.187500
8224,117.187500
8225,117.187500
8226,117.187500
8227,117.187500
8228,117.187500
8229,117.187500
8230,117.187500
8231,117.187500
8232,117.187500
8233,117.187500
8234,117.187500
8235,117.187500
8236,117.187500
8237,117.187500
8238,117.187500
8239,117.187500
8240,117.187500
8241,117.187500
8242,117.187500
8243,117.187500
8244,117.187500
8245,117.187500
8246,117.187500
8247,117.187500
8248,117.187500
8249,117.187500
8250,117.187500
8251,117.187500
8252,117.187500
8253,117.187500
8254,117.187500
8255,117.187500
8256,117.187500
8257,117.187500
8258,117.187500
8259,117.187500
8260,117.187500
8261,117.187500
8262,117.187500
8263,117.187500
8264,117.187500
8265,117.187500
8266,117.187500
8267,117.187500
8268,117.187500
8269,113.281250
8270,117.187500
8271,117.187500
8272,117.187500
8273,117.187500
8274,117.187500
8275,117.187500
8276,117.187500
8277,117.187500
8278,117.187500
8279,113.281250
8280,113.281250
8281,113.281250
8282,113.281250
8283,113.281250
8284,113.281250
8285,113.281250
8286,113.281250
8287,113.281250
8288,113.281250
8289,113.281250
8290,113.281250
8291,113.281250
8292,113.281250
8293,113.281250
8294,113.281250
8295,109.375000
8296,113.281250
8297,113.281250
8298,109.375000
8299,109.375000
8300,109.375000
8301,109.375000
8302,109.375000
8303,109.375000
8304,109.375000
8305,109.375000
8306,109.375000
8307,109.375000
8308,109.375000
8309,109.375000
8310,105.468750
8311,105.468750
8312,105.468750
8313,105.468750
8314,109.375000
8315,105.468750
8316,105.468750
8317,105.468750
8318,105.468750
8319,105.468750
8320,105.468750
8321,105.468750
8322,105.468750
8323,101.562500
8324,101.562500
8325,101.562500
8326,101.562500
8327,101.562500
8328,101.562500
8329,101.562500
8330,101.562500
8331,101.562500
8332,101.562500
8333,101.562500
8334,97.656250
8335,97.656250
8336,97.656250
8337,97.656250
8338,97.656250
8339,97.656250
8340,97.656250
8341,97.656250
8342,97.656250
8343,93.750000
8344,93.750000
8345,93.750000
8346,93.750000
8347,93.750000
8348,93.750000
8349,89.843750
8350,89.843750
8351,93.750000
8352,89.843750
8353,89.843750
8354,89.843750
8355,89.843750
8356,89.843750
8357,89.843750
8358,85.937500
8359,85.937500
8360,85.937500
8361,85.937500
8362,85.937500
8363,85.937500
8364,85.937500
8365,82.031250
8366,82.031250
8367,82.031250
8368,82.031250
8369,82.031250
8370,82.031250
8371,82.031250
8372,82.031250
8373,78.125000
8374,78.125000
8375,78.125000
8376,78.125000
8377,78.125000
8378,74.218750
8379,74.218750
8380,74.218750
8381,74.218750
8382,74.218750
8383,74.218750
8384,74.218750
8385,74.218750
8386,70.312500
8387,70.312500
8388,70.312500
8389,70.312500
8390,70.312500
8391,70.312500
8392,70.312500
8393,66.406250
8394,66.406250
8395,66.406250
8396,66.406250
8397,62.500000
8398,62.500000
8399,62.500000
8400,62.500000
8401,62.500000
8402,62.500000
8403,58.593750
8404,58.593750
8405,58.593750
8406,58.593750
8407,58.593750
8408,58.593750
8409,54.687500
8410,54.687500
8411,54.687500
8412,54.687500
8413,54.687500
8414,54.687500
8415,50.781250
8416,50.781250
8417,50.781250
8418,50.781250
8419,46.875000
8420,46.875000
8421,46.875000
8422,46.875000
8423,46.875000
8424,46.875000
8425,42.968750
8426,42.968750
8427,42.968750
8428,42.968750
8429,39.062500
8430,39.062500
8431,39.062500
8432,39.062500
8433,39.062500
8434,35.156250
8435,35.156250
8436,35.156250
8437,35.156250
8438,35.156250
8439,35.156250
8440,31.250000
8441,31.250000
8442,31.250000
8443,31.250000
8444,27.343750
8445,27.343750
8446,27.343750
8447,27.343750
8448,27.343750
8449,23.437500
8450,23.437500
8451,23.437500
8452,23.437500
8453,19.531250
8454,19.531250
8455,19.531250
8456,19.531250
8457,19.531250
8458,15.625000
8459,15.625000
8460,15.625000
8461,15.625000
8462,15.625000
8463,11.718750
8464,11.718750
8465,11.718750
8466,11.718750
8467,7.812500
8468,7.812500
8469,7.812500
8470,7.812500
8471,3.906250
8472,3.906250
8473,3.906250
8474,3.906250
8475,3.906250
8476,0.000000
8477,0.000000
8478,0.000000
8479,0.000000
8480,0.000000
8481,-3.906250
8482,-3.906250
8483,-3.906250
8484,-7.812500
8485,-7.812500
8486,-7.812500
8487,-7.812500
8488,-7.812500
8489,-11.718750
8490,-11.718750
8491,-11.718750
8492,-11.718750
8493,-15.625000
8494,-15.625000
8495,-15.625000
8496,-15.625000
8497,-19.531250
8498,-19.531250
8499,-19.531250
8500,-19.531250
8501,-19.531250
8502,-23.437500
8503,-23.437500
8504,-23.437500
8505,-23.437500
8506,-27.343750
8507,-27.343750
8508,-27.343750
8509,-27.343750
8510,-27.343750
8511,-31.250000
8512,-31.250000
8513,-31.250000
8514,-35.156250
8515,-35.156250
8516,-35.156250
8517,-35.156250
8518,-35.156250
8519,-39.062500
8520,-39.062500
8521,-39.062500
8522,-39.062500
8523,-42.968750
8524,-42.968750
8525,-42.968750
8526,-42.968750
8527,-46.875000
8528,-46.875000
8529,-46.875000
8530,-46.875000
8531,-46.875000
8532,-50.781250
8533,-50.781250
8534,-50.781250
8535,-50.781250
8536,-50.781250
8537,-54.687500
8538,-54.687500
8539,-54.687500
8540,-54.687500
8541,-58.593750
8542,-58.593750
8543,-58.593750
8544,-58.593750
8545,-62.500000
8546,-62.500000
8547,-62.500000
8548,-62.500000
8549,-62.500000
8550,-66.406250
8551,-66.406250
8552,-66.406250
8553,-66.406250
8554,-70.312500
8555,-70.312500
8556,-70.312500
8557,-70.312500
8558,-70.312500
8559,-74.218750
8560,-74.218750
8561,-74.218750
8562,-74.218750
8563,-78.125000
8564,-78.125000
8565,-78.125000
8566,-78.125000
8567,-82.031250
8568,-82.031250
8569,-82.031250
8570,-82.031250
8571,-82.031250
8572,-85.937500
8573,-85.937500
8574,-85.937500
8575,-85.937500
8576,-85.937500
8577,-89.843750
8578,-89.843750
8579,-89.843750
8580,-89.843750
8581,-89.843750
8582,-93.750000
8583,-93.750000
8584,-93.750000
8585,-93.750000
8586,-93.750000
8587,-93.750000
8588,-97.656250
8589,-97.656250
8590,-97.656250
8591,-97.656250
8592,-101.562500
8593,-101.562500
8594,-101.562500
8595,-101.562500
8596,-101.562500
8597,-101.562500
8598,-101.562500
8599,-105.468750
8600,-105.468750
8601,-105.468750
8602,-109.375000
8603,-105.468750
8604,-109.375000
8605,-109.375000
8606,-109.375000
8607,-109.375000
8608,-113.281250
8609,-113.281250
8610,-113.281250
8611,-113.281250
8612,-113.281250
8613,-117.187500
8614,-117.187500
8615,-117.187500
8616,-117.187500
8617,-117.187500
8618,-117.187500
8619,-117.187500
8620,-121.093750
8621,-121.093750
8622,-121.093750
8623,-121.093750
8624,-121.093750
8625,-125.000000
8626,-125.000000
8627,-125.000000
8628,-125.000000
8629,-125.000000
8630,-125.000000
8631,-125.000000
8632,-128.906250
8633,-128.906250
8634,-128.906250
8635,-128.906250
8636,-128.906250
8637,-128.906250
8638,-128.906250
8639,-132.812500
8640,-132.812500
8641,-132.812500
8642,-132.812500
8643,-132.812500
8644,-132.812500
8645,-136.718750
8646,-132.812500
8647,-136.718750
8648,-136.718750
8649,-136.718750
8650,-136.718750
8651,-136.718750
8652,-136.718750
8653,-136.718750
8654,-140.625000
8655,-140.625000
8656,-140.625000
8657,-140.625000
8658,-140.625000
8659,-140.625000
8660,-140.625000
8661,-140.625000
8662,-144.531250
8663,-144.531250
8664,-144.531250
8665,-144.531250
8666,-144.531250
8667,-144.531250
8668,-144.531250
8669,-144.531250
8670,-144.531250
8671,-144.531250
8672,-148.437500
8673,-148.437500
8674,-148.437500
8675,-148.437500
8676,-148.437500
8677,-148.437500
8678,-148.437500
8679,-148.437500
8680,-148.437500
8681,-148.437500
8682,-148.437500
8683,-148.437500
8684,-152.343750
8685,-152.343750
8686,-152.343750
8687,-152.343750
8688,-152.343750
8689,-152.343750
8690,-152.343750
8691,-152.343750
8692,-152.343750
8693,-152.343750
8694,-152.343750
8695,-152.343750
8696,-152.343750
8697,-152.343750
8698,-156.250000
8699,-152.343750
8700,-156.250000
8701,-156.250000
8702,-156.250000
8703,-156.250000
8704,-156.250000
8705,-156.250000
8706,-156.250000
8707,-156.250000
8708,-156.250000
8709,-156.250000
8710,-156.250000
8711,-156.250000
8712,-156.250000
8713,-156.250000
8714,-156.250000
8715,-156.250000
8716,-156.250000
8717,-156.250000
8718,-156.250000
8719,-156.250000
8720,-156.250000
8721,-156.250000
8722,-156.250000
8723,-156.250000
8724,-156.250000
8725,-156.250000
8726,-156.250000
8727,-156.250000
8728,-156.250000
8729,-156.250000
8730,-160.156250
8731,-156.250000
8732,-160.156250
8733,-156.250000
8734,-156.250000
8735,-156.250000
8736,-156.250000
8737,-156.250000
8738,-156.250000
8739,-156.250000
8740,-160.156250
8741,-156.250000
8742,-156.250000
8743,-156.250000
8744,-156.250000
8745,-156.250000
8746,-156.250000
8747,-156.250000
8748,-156.250000
8749,-156.250000
8750,-156.250000
8751,-156.250000
8752,-156.250000
8753,-156.250000
8754,-156.250000
8755,-156.250000
8756,-156.250000
8757,-156.250000
8758,-156.250000
8759,-156.250000
8760,-156.250000
8761,-156.250000
8762,-156.250000
8763,-152.343750
8764,-156.250000
8765,-156.250000
8766,-156.250000
8767,-156.250000
8768,-156.250000
8769,-152.343750
8770,-152.343750
8771,-152.343750
8772,-152.343750
8773,-152.343750
8774,-152.343750
8775,-152.343750
8776,-152.343750
8777,-152.343750
8778,-152.343750
8779,-152.343750
8780,-152.343750
8781,-152.343750
8782,-148.437500
8783,-148.437500
8784,-148.437500
8785,-148.437500
8786,-148.437500
8787,-148.437500
8788,-148.437500
8789,-148.437500
8790,-148.437500
8791,-148.437500
8792,-148.437500
8793,-144.531250
8794,-144.531250
8795,-144.531250
8796,-144.531250
8797,-144.531250
8798,-144.531250
8799,-144.531250
8800,-144.531250
8801,-144.531250
8802,-144.531250
8803,-140.625000
8804,-140.625000
8805,-140.625000
8806,-140.625000
8807,-140.625000
8808,-140.625000
8809,-140.625000
8810,-140.625000
8811,-136.718750
8812,-136.718750
8813,-136.718750
8814,-136.718750
8815,-136.718750
8816,-136.718750
8817,-136.718750
8818,-136.718750
8819,-132.812500
8820,-132.812500
8821,-132.812500
8822,-132.812500
8823,-132.812500
8824,-132.812500
8825,-128.906250
8826,-128.906250
8827,-128.906250
8828,-128.906250
8829,-128.906250
8830,-128.906250
8831,-128.906250
8832,-125.000000
8833,-125.000000
8834,-125.000000
8835,-125.000000
8836,-125.000000
8837,-125.000000
8838,-125.000000
8839,-121.093750
8840,-121.093750
8841,-121.093750
8842,-121.093750
8843,-121.093750
8844,-121.093750
8845,-117.187500
8846,-117.187500
8847,-117.187500
8848,-117.187500
8849,-117.187500
8850,-113.281250
8851,-113.281250
8852,-113.281250
8853,-113.281250
8854,-113.281250
8855,-113.281250
8856,-113.281250
8857,-109.375000
8858,-109.375000
8859,-109.375000
8860,-109.375000
8861,-109.375000
8862,-105.468750
8863,-105.468750
8864,-105.468750
8865,-105.468750
8866,-105.468750
8867,-105.468750
8868,-101.562500
8869,-101.562500
8870,-101.562500
8871,-101.562500
8872,-101.562500
8873,-97.656250
8874,-97.656250
8875,-97.656250
8876,-97.656250
8877,-97.656250
8878,-93.750000
8879,-93.750000
8880,-93.750000
8881,-93.750000
8882,-93.750000
8883,-89.843750
8884,-89.843750
8885,-89.843750
8886,-89.843750
8887,-89.843750
8888,-85.937500
8889,-85.937500
8890,-85.937500
8891,-85.937500
8892,-82.031250
8893,-82.031250
8894,-82.031250
8895,-82.031250
8896,-82.031250
8897,-78.125000
8898,-78.125000
8899,-78.125000
8900,-78.125000
8901,-78.125000
8902,-78.125000
8903,-74.218750
8904,-74.218750
8905,-74.218750
8906,-74.218750
8907,-70.312500
8908,-70.312500
8909,-70.312500
8910,-70.312500
8911,-66.406250
8912,-66.406250
8913,-66.406250
8914,-66.406250
8915,-66.406250
8916,-62.500000
8917,-62.500000
8918,-62.500000
8919,-62.500000
8920,-58.593750
8921,-58.593750
8922,-58.593750
8923,-58.593750
8924,-58.593750
8925,-54.687500
8926,-54.687500
8927,-54.687500
8928,-54.687500
8929,-50.781250
8930,-50.781250
8931,-50.781250
8932,-50.781250
8933,-46.875000
8934,-46.875000
8935,-46.875000
8936,-46.875000
8937,-46.875000
8938,-42.968750
8939,-42.968750
8940,-42.968750
8941,-42.968750
8942,-42.968750
8943,-39.062500
8944,-39.062500
8945,-39.062500
8946,-39.062500
8947,-35.156250
8948,-35.156250
8949,-35.156250
8950,-35.156250
8951,-31.250000
8952,-31.250000
8953,-31.250000
8954,-31.250000
8955,-27.343750
8956,-27.343750
8957,-27.343750
8958,-27.343750
8959,-27.343750
8960,-23.437500
8961,-23.437500
8962,-23.437500
8963,-23.437500
8964,-19.531250
8965,-19.531250
8966,-19.531250
8967,-19.531250
8968,-15.625000
8969,-15.625000
8970,-15.625000
8971,-15.625000
8972,-11.718750
8973,-11.718750
8974,-11.718750
8975,-11.718750
8976,-7.812500
8977,-7.812500
8978,-7.812500
8979,-7.812500
8980,-7.812500
8981,-3.906250
8982,-3.906250
8983,-3.906250
8984,-3.906250
8985,-3.906250
8986,0.000000
8987,0.000000
8988,0.000000
8989,0.000000
8990,3.906250
8991,3.906250
8992,3.906250
8993,3.906250
8994,3.906250
8995,7.812500
8996,7.812500
8997,7.812500
8998,7.812500
8999,7.812500
9000,11.718750
9001,11.718750
9002,11.718750
9003,11.718750
9004,15.625000
9005,15.625000
9006,15.625000
9007,15.625000
9008,19.531250
9009,19.531250
9010,19.531250
9011,19.531250
9012,19.531250
9013,23.437500
9014,23.437500
9015,23.437500
9016,23.437500
9017,23.437500
9018,23.437500
9019,27.343750
9020,27.343750
9021,27.343750
9022,27.343750
9023,31.250000
9024,31.250000
9025,31.250000
9026,31.250000
9027,35.156250
9028,35.156250
9029,35.156250
9030,35.156250
9031,35.156250
9032,35.156250
9033,39.062500
9034,39.062500
9035,39.062500
9036,39.062500
9037,39.062500
9038,42.968750
9039,42.968750
9040,42.968750
9041,42.968750
9042,46.875000
9043,46.875000
9044,46.875000
9045,46.875000
9046,46.875000
9047,46.875000
9048,50.781250
9049,50.781250
9050,50.781250
9051,50.781250
9052,50.781250
9053,54.687500
9054,54.687500
9055,54.687500
9056,54.687500
9057,54.687500
9058,54.687500
9059,58.593750
9060,58.593750
9061,58.593750
9062,58.593750
9063,58.593750
9064,62.500000
9065,62.500000
9066,62.500000
9067,62.500000
9068,62.500000
9069,62.500000
9070,66.406250
9071,66.406250
9072,66.406250
9073,66.406250
9074,66.406250
9075,66.406250
9076,66.406250
9077,70.312500
9078,70.312500
9079,70.312500
9080,70.312500
9081,74.218750
9082,74.218750
9083,74.218750
9084,74.218750
9085,74.218750
9086,74.218750
9087,74.218750
9088,74.218750
9089,78.125000
9090,78.125000
9091,78.125000
9092,78.125000
9093,82.031250
9094,78.125000
9095,82.031250
9096,82.031250
9097,82.031250
9098,82.031250
9099,82.031250
9100,82.031250
9101,82.031250
9102,85.937500
9103,85.937500
9104,85.937500
9105,85.937500
9106,85.937500
9107,85.937500
9108,85.937500
9109,89.843750
9110,89.843750
9111,89.843750
9112,89.843750
9113,89.843750
9114,89.843750
9115,89.843750
9116,89.843750
9117,93.750000
9118,93.750000
9119,93.750000
9120,93.750000
9121,93.750000
9122,93.750000
9123,93.750000
9124,93.750000
9125,93.750000
9126,97.656250
9127,97.656250
9128,97.656250
9129,97.656250
9130,97.656250
9131,97.656250
9132,97.656250
9133,97.656250
9134,101.562500
9135,101.562500
9136,101.562500
9137,101.562500
9138,101.562500
9139,101.562500
9140,101.562500
9141,101.562500
9142,101.562500
9143,101.562500
9144,101.562500
9145,101.562500
9146,105.468750
9147,105.468750
9148,105.468750
9149,105.468750
9150,105.468750
9151,105.468750
9152,105.468750
9153,105.468750
9154,105.468750
9155,105.468750
9156,105.468750
9157,109.375000
9158,109.375000
9159,109.375000
9160,109.375000
9161,109.375000
9162,109.375000
9163,109.375000
9164,109.375000
9165,109.375000
9166,109.375000
9167,109.375000
9168,113.281250
9169,109.375000
9170,109.375000
9171,109.375000
9172,113.281250
9173,113.281250
9174,113.281250
9175,113.281250
9176,113.281250
9177,113.281250
9178,113.281250
9179,113.281250
9180,113.281250
9181,113.281250
9182,113.281250
9183,113.281250
9184,113.281250
9185,113.281250
9186,113.281250
9187,117.187500
9188,117.187500
9189,113.281250
9190,113.281250
9191,117.187500
9192,117.187500
9193,117.187500
9194,117.187500
9195,117.187500
9196,117.187500
9197,117.187500
9198,117.187500
9199,117.187500
9200,117.187500
9201,117.187500
9202,117.187500
9203,117.187500
9204,117.187500
9205,117.187500
9206,117.187500
9207,117.187500
9208,117.187500
9209,117.187500
9210,117.187500
9211,117.187500
9212,117.187500
9213,113.281250
9214,117.187500
9215,117.187500
9216,117.187500
9217,117.187500
9218,117.187500
9219,117.187500
9220,117.187500
9221,117.187500
9222,117.187500
9223,117.187500
9224,121.093750
9225,121.093750
9226,121.093750
9227,117.187500
9228,121.093750
9229,117.187500
9230,117.187500
9231,117.187500
9232,117.187500
9233,117.187500
9234,117.187500
9235,117.187500
9236,117.187500
9237,117.187500
9238,121.093750
9239,117.187500
9240,117.187500
9241,117.187500
9242,117.187500
9243,117.187500
9244,117.187500
9245,117.187500
9246,117.187500
9247,117.187500
9248,117.187500
9249,117.187500
9250,117.187500
9251,117.187500
9252,117.187500
9253,117.187500
9254,117.187500
9255,117.187500
9256,117.187500
9257,117.187500
9258,117.187500
9259,117.187500
9260,117.187500
9261,117.187500
9262,117.187500
9263,117.187500
9264,117.187500
9265,117.187500
9266,117.187500
9267,117.187500
9268,113.281250
9269,113.281250
9270,113.281250
9271,113.281250
9272,113.281250
9273,113.281250
9274,113.281250
9275,113.281250
9276,113.281250
9277,113.281250
9278,113.281250
9279,113.281250
9280,113.281250
9281,113.281250
9282,113.281250
9283,113.281250
9284,113.281250
9285,113.281250
9286,113.281250
9287,109.375000
9288,109.375000
9289,109.375000
9290,109.375000
9291,109.375000
9292,109.375000
9293,109.375000
9294,109.375000
9295,109.375000
9296,109.375000
9297,109.375000
9298,105.468750
9299,109.375000
9300,105.468750
9301,105.468750
9302,105.468750
9303,105.468750
9304,105.468750
9305,105.468750
9306,105.468750
9307,105.468750
9308,105.468750
9309,105.468750
9310,105.468750
9311,105.468750
9312,105.468750
9313,101.562500
9314,101.562500
9315,101.562500
9316,101.562500
9317,101.562500
9318,101.562500
9319,101.562500
9320,101.562500
9321,101.562500
9322,101.562500
9323,97.656250
9324,97.656250
9325,97.656250
9326,97.656250
9327,97.656250
9328,97.656250
9329,97.656250
9330,97.656250
9331,97.656250
9332,93.750000
9333,93.750000
9334,93.750000
9335,93.750000
9336,93.750000
9337,93.750000
9338,93.750000
9339,93.750000
9340,89.843750
9341,89.843750
9342,89.843750
9343,89.843750
9344,89.843750
9345,89.843750
9346,89.843750
9347,85.937500
9348,89.843750
9349,85.937500
9350,85.937500
9351,85.937500
9352,85.937500
9353,85.937500
9354,82.031250
9355,85.937500
9356,82.031250
9357,82.031250
9358,82.031250
9359,82.031250
9360,82.031250
9361,78.125000
9362,78.125000
9363,78.125000
9364,78.125000
9365,78.125000
9366,78.125000
9367,78.125000
9368,78.125000
9369,74.218750
9370,74.218750
9371,74.218750
9372,74.218750
9373,74.218750
9374,70.312500
9375,70.312500
9376,70.312500
9377,70.312500
9378,70.312500
9379,70.312500
9380,70.312500
9381,66.406250
9382,66.406250
9383,66.406250
9384,66.406250
9385,66.406250
9386,66.406250
9387,62.500000
9388,62.500000
9389,62.500000
9390,62.500000
9391,62.500000
9392,58.593750
9393,58.593750
9394,58.593750
9395,58.593750
9396,58.593750
9397,58.593750
9398,54.687500
9399,54.687500
9400,54.687500
9401,54.687500
9402,54.687500
9403,50.781250
9404,50.781250
9405,50.781250
9406,50.781250
9407,50.781250
9408,50.781250
9409,46.875000
9410,46.875000
9411,46.875000
9412,46.875000
9413,42.968750
9414,42.968750
9415,42.968750
9416,42.968750
9417,42.968750
9418,39.062500
9419,39.062500
9420,39.062500
9421,39.062500
9422,39.062500
9423,35.156250
9424,35.156250
9425,35.156250
9426,35.156250
9427,35.156250
9428,31.250000
9429,31.250000
9430,31.250000
9431,31.250000
9432,27.343750
9433,27.343750
9434,27.343750
9435,27.343750
9436,27.343750
9437,23.437500
9438,23.437500
9439,23.437500
9440,23.437500
9441,23.437500
9442,19.531250
9443,19.531250
9444,19.531250
9445,19.531250
9446,19.531250
9447,15.625000
9448,15.625000
9449,15.625000
9450,15.625000
9451,15.625000
9452,11.718750
9453,11.718750
9454,11.718750
9455,7.812500
9456,7.812500
9457,7.812500
9458,7.812500
9459,7.812500
9460,7.812500
9461,3.906250
9462,3.906250
9463,3.906250
9464,0.000000
9465,0.000000
9466,0.000000
9467,0.000000
9468,0.000000
9469,-3.906250
9470,-3.906250
9471,-3.906250
9472,-3.906250
9473,-7.812500
9474,-7.812500
9475,-7.812500
9476,-7.812500
9477,-7.812500
9478,-7.812500
9479,-11.718750
9480,-11.718750
9481,-11.718750
9482,-11.718750
9483,-15.625000
9484,-15.625000
9485,-15.625000
9486,-15.625000
9487,-19.531250
9488,-15.625000
9489,-19.531250
9490,-19.531250
9491,-23.437500
9492,-23.437500
9493,-23.437500
9494,-23.437500
9495,-23.437500
9496,-27.343750
9497,-27.343750
9498,-27.343750
9499,-27.343750
9500,-31.250000
9501,-31.250000
9502,-31.250000
9503,-31.250000
9504,-35.156250
9505,-35.156250
9506,-35.156250
9507,-35.156250
9508,-35.156250
9509,-39.062500
9510,-39.062500
9511,-39.062500
9512,-42.968750
9513,-42.968750
9514,-42.968750
9515,-42.968750
9516,-42.968750
9517,-42.968750
9518,-46.875000
9519,-46.875000
9520,-50.781250
9521,-46.875000
9522,-50.781250
9523,-50.781250
9524,-50.781250
9525,-50.781250
9526,-54.687500
9527,-54.687500
9528,-54.687500
9529,-54.687500
9530,-58.593750
9531,-58.593750
9532,-58.593750
9533,-58.593750
9534,-58.593750
9535,-62.500000
9536,-62.500000
9537,-62.500000
9538,-62.500000
9539,-66.406250
9540,-66.406250
9541,-66.406250
9542,-66.406250
9543,-66.406250
9544,-70.312500
9545,-70.312500
9546,-70.312500
9547,-70.312500
9548,-74.218750
9549,-74.218750
9550,-74.218750
9551,-74.218750
9552,-74.218750
9553,-78.125000
9554,-78.125000
9555,-78.125000
9556,-78.125000
9557,-82.031250
9558,-82.031250
9559,-82.031250
9560,-82.031250
9561,-82.031250
9562,-85.937500
9563,-85.937500
9564,-85.937500
9565,-85.937500
9566,-85.937500
9567,-89.843750
9568,-89.843750
9569,-89.843750
9570,-89.843750
9571,-93.750000
9572,-93.750000
9573,-93.750000
9574,-93.750000
9575,-93.750000
9576,-93.750000
9577,-97.656250
9578,-97.656250
9579,-97.656250
9580,-97.656250
9581,-97.656250
9582,-101.562500
9583,-101.562500
9584,-101.562500
9585,-105.468750
9586,-101.562500
9587,-105.468750
9588,-105.468750
9589,-105.468750
9590,-105.468750
9591,-109.375000
9592,-101.562500
9593,-109.375000
9594,-109.375000
9595,-109.375000
9596,-109.375000
9597,-109.375000
9598,-113.281250
9599,-113.281250
9600,-113.281250
9601,-113.281250
9602,-113.281250
9603,-113.281250
9604,-117.187500
9605,-117.187500
9606,-117.187500
9607,-117.187500
9608,-117.187500
9609,-117.187500
9610,-121.093750
9611,-121.093750
9612,-121.093750
9613,-121.093750
9614,-121.093750
9615,-121.093750
9616,-125.000000
9617,-125.000000
9618,-125.000000
9619,-125.000000
9620,-125.000000
9621,-125.000000
9622,-125.000000
9623,-128.906250
9624,-128.906250
9625,-128.906250
9626,-128.906250
9627,-128.906250
9628,-132.812500
9629,-132.812500
9630,-132.812500
9631,-132.812500
9632,-132.812500
9633,-132.812500
9634,-132.812500
9635,-132.812500
9636,-136.718750
9637,-136.718750
9638,-136.718750
9639,-136.718750
9640,-136.718750
9641,-136.718750
9642,-136.718750
9643,-136.718750
9644,-140.625000
9645,-140.625000
9646,-140.625000
9647,-140.625000
9648,-140.625000
9649,-140.625000
9650,-140.625000
9651,-140.625000
9652,-140.625000
9653,-144.531250
9654,-144.531250
9655,-144.531250
9656,-144.531250
9657,-144.531250
9658,-144.531250
9659,-144.531250
9660,-144.531250
9661,-144.531250
9662,-148.437500
9663,-148.437500
9664,-148.437500
9665,-148.437500
9666,-148.437500
9667,-148.437500
9668,-148.437500
9669,-148.437500
9670,-148.437500
9671,-148.437500
9672,-148.437500
9673,-148.437500
9674,-152.343750
9675,-152.343750
9676,-152.343750
9677,-152.343750
9678,-152.343750
9679,-152.343750
9680,-152.343750
9681,-152.343750
9682,-152.343750
9683,-152.343750
9684,-152.343750
9685,-156.250000
9686,-156.250000
9687,-152.343750
9688,-156.250000
9689,-156.250000
9690,-156.250000
9691,-152.343750
9692,-156.250000
9693,-156.250000
9694,-156.250000
9695,-156.250000
9696,-156.250000
9697,-156.250000
9698,-156.250000
9699,-156.250000
9700,-156.250000
9701,-156.250000
9702,-156.250000
9703,-156.250000
9704,-156.250000
9705,-156.250000
9706,-156.250000
9707,-156.250000
9708,-156.250000
9709,-156.250000
9710,-156.250000
9711,-156.250000
9712,-156.250000
9713,-156.250000
9714,-156.250000
9715,-156.250000
9716,-156.250000
9717,-160.156250
9718,-156.250000
9719,-156.250000
9720,-156.250000
9721,-156.250000
9722,-156.250000
9723,-156.250000
9724,-156.250000
9725,-156.250000
9726,-156.250000
9727,-156.250000
9728,-156.250000
9729,-156.250000
9730,-156.250000
9731,-156.250000
9732,-156.250000
9733,-156.250000
9734,-156.250000
9735,-156.250000
9736,-156.250000
9737,-156.250000
9738,-156.250000
9739,-156.250000
9740,-156.250000
9741,-156.250000
9742,-156.250000
9743,-156.250000
9744,-156.250000
9745,-156.250000
9746,-156.250000
9747,-156.250000
9748,-156.250000
9749,-156.250000
9750,-156.250000
9751,-156.250000
9752,-156.250000
9753,-156.250000
9754,-156.250000
9755,-152.343750
9756,-152.343750
9757,-152.343750
9758,-152.343750
9759,-152.343750
9760,-152.343750
9761,-152.343750
9762,-152.343750
9763,-152.343750
9764,-152.343750
9765,-152.343750
9766,-152.343750
9767,-152.343750
9768,-152.343750
9769,-148.437500
9770,-148.437500
9771,-148.437500
9772,-148.437500
9773,-148.437500
9774,-148.437500
9775,-148.437500
9776,-148.437500
9777,-148.437500
9778,-148.437500
9779,-148.437500
9780,-148.437500
9781,-144.531250
9782,-144.531250
9783,-144.531250
9784,-144.531250
9785,-144.531250
9786,-144.531250
9787,-144.531250
9788,-144.531250
9789,-144.531250
9790,-144.531250
9791,-140.625000
9792,-140.625000
9793,-140.625000
9794,-140.625000
9795,-140.625000
9796,-140.625000
9797,-140.625000
9798,-140.625000
9799,-140.625000
9800,-140.625000
9801,-136.718750
9802,-136.718750
9803,-136.718750
9804,-136.718750
9805,-136.718750
9806,-136.718750
9807,-136.718750
9808,-136.718750
9809,-132.812500
9810,-132.812500
9811,-132.812500
9812,-132.812500
9813,-132.812500
9814,-132.812500
9815,-128.906250
9816,-128.906250
9817,-128.906250
9818,-128.906250
9819,-128.906250
9820,-128.906250
9821,-125.000000
9822,-125.000000
9823,-125.000000
9824,-125.000000
9825,-125.000000
9826,-125.000000
9827,-125.000000
9828,-121.093750
9829,-121.093750
9830,-121.093750
9831,-121.093750
9832,-121.093750
9833,-121.093750
9834,-121.093750
9835,-117.187500
9836,-117.187500
9837,-117.187500
9838,-117.187500
9839,-117.187500
9840,-113.281250
9841,-113.281250
9842,-113.281250
9843,-113.281250
9844,-113.281250
9845,-113.281250
9846,-109.375000
9847,-109.375000
9848,-109.375000
9849,-109.375000
9850,-109.375000
9851,-109.375000
9852,-105.468750
9853,-105.468750
9854,-105.468750
9855,-105.468750
9856,-105.468750
9857,-101.562500
9858,-101.562500
9859,-101.562500
9860,-101.562500
9861,-101.562500
9862,-97.656250
9863,-97.656250
9864,-97.656250
9865,-97.656250
9866,-97.656250
9867,-93.750000
9868,-93.750000
9869,-93.750000
9870,-93.750000
9871,-93.750000
9872,-93.750000
9873,-89.843750
9874,-89.843750
9875,-89.843750
9876,-89.843750
9877,-85.937500
9878,-85.937500
9879,-85.937500
9880,-85.937500
9881,-85.937500
9882,-85.937500
9883,-82.031250
9884,-82.031250
9885,-82.031250
9886,-78.125000
9887,-78.125000
9888,-78.125000
9889,-78.125000
9890,-78.125000
9891,-74.218750
9892,-74.218750
9893,-74.218750
9894,-74.218750
9895,-74.218750
9896,-74.218750
9897,-70.312500
9898,-70.312500
9899,-70.312500
9900,-70.312500
9901,-66.406250
9902,-66.406250
9903,-66.406250
9904,-66.406250
9905,-62.500000
9906,-62.500000
9907,-62.500000
9908,-62.500000
9909,-62.500000
9910,-58.593750
9911,-58.593750
9912,-58.593750
9913,-58.593750
9914,-54.687500
9915,-54.687500
9916,-54.687500
9917,-54.687500
9918,-54.687500
9919,-50.781250
9920,-50.781250
9921,-50.781250
9922,-50.781250
9923,-46.875000
9924,-46.875000
9925,-46.875000
9926,-46.875000
9927,-42.968750
9928,-42.968750
9929,-42.968750
9930,-42.968750
9931,-42.968750
9932,-39.062500
9933,-39.062500
9934,-39.062500
9935,-39.062500
9936,-35.156250
9937,-35.156250
9938,-35.156250
9939,-35.156250
9940,-35.156250
9941,-31.250000
9942,-31.250000
9943,-31.250000
9944,-27.343750
9945,-27.343750
9946,-27.343750
9947,-27.343750
9948,-27.343750
9949,-27.343750
9950,-23.437500
9951,-23.437500
9952,-23.437500
9953,-19.531250
9954,-19.531250
9955,-19.531250
9956,-19.531250
9957,-19.531250
9958,-15.625000
9959,-15.625000
9960,-15.625000
9961,-15.625000
9962,-11.718750
9963,-11.718750
9964,-11.718750
9965,-11.718750
9966,-7.812500
9967,-7.812500
9968,-7.812500
9969,-7.812500
9970,-7.812500
9971,-3.906250
9972,-3.906250
9973,-3.906250
9974,-3.906250
9975,0.000000
9976,0.000000
9977,0.000000
9978,0.000000
9979,0.000000
9980,3.906250
9981,3.906250
9982,3.906250
9983,3.906250
9984,3.906250
9985,7.812500
9986,7.812500
9987,7.812500
9988,7.812500
9989,11.718750
9990,11.718750
9991,11.718750
9992,11.718750
9993,11.718750
9994,15.625000
9995,15.625000
9996,15.625000
9997,15.625000
9998,19.531250
9999,19.531250
10000,19.531250
