Channel              :,CH1
Frequency            :,1.010kHz
Period               :,0.990ms
PK-PK                :,289.1mV
Probe attenuation    :,1X
Voltage per ADC value:,0.244141mV
Time interval        :,1.00000us

index,CH1_Voltage(mV)
1,-70.312500
2,-70.312500
3,-70.312500
4,-70.312500
5,-66.406250
6,-66.406250
7,-66.406250
8,-66.406250
9,-62.500000
10,-62.500000
11,-62.500000
12,-58.593750
13,-58.593750
14,-58.593750
15,-58.593750
16,-58.593750
17,-54.687500
18,-54.687500
19,-54.687500
20,-54.687500
21,-50.781250
22,-50.781250
23,-50.781250
24,-50.781250
25,-50.781250
26,-50.781250
27,-46.875000
28,-46.875000
29,-46.875000
30,-42.968750
31,-42.968750
32,-42.968750
33,-42.968750
34,-42.968750
35,-39.062500
36,-39.062500
37,-39.062500
38,-39.062500
39,-35.156250
40,-35.156250
41,-35.156250
42,-35.156250
43,-31.250000
44,-31.250000
45,-31.250000
46,-31.250000
47,-27.343750
48,-27.343750
49,-27.343750
50,-27.343750
51,-23.437500
52,-23.437500
53,-23.437500
54,-23.437500
55,-19.531250
56,-19.531250
57,-19.531250
58,-19.531250
59,-15.625000
60,-19.531250
61,-15.625000
62,-15.625000
63,-11.718750
64,-11.718750
65,-11.718750
66,-11.718750
67,-11.718750
68,-7.812500
69,-7.812500
70,-7.812500
71,-7.812500
72,-3.906250
73,-3.906250
74,-3.906250
75,-3.906250
76,-3.906250
77,0.000000
78,0.000000
79,0.000000
80,0.000000
81,3.906250
82,3.906250
83,3.906250
84,3.906250
85,7.812500
86,7.812500
87,7.812500
88,7.812500
89,7.812500
90,11.718750
91,11.718750
92,11.718750
93,11.718750
94,15.625000
95,15.625000
96,15.625000
97,15.625000
98,19.531250
99,19.531250
100,19.531250
101,19.531250
102,23.437500
103,23.437500
104,23.437500
105,23.437500
106,23.437500
107,27.343750
108,27.343750
109,27.343750
110,27.343750
111,27.343750
112,31.250000
113,31.250000
114,31.250000
115,31.250000
116,31.250000
117,35.156250
118,35.156250
119,35.156250
120,35.156250
121,35.156250
122,39.062500
123,39.062500
124,39.062500
125,39.062500
126,42.968750
127,42.968750
128,42.968750
129,42.968750
130,42.968750
131,46.875000
132,46.875000
133,46.875000
134,46.875000
135,46.875000
136,50.781250
137,50.781250
138,50.781250
139,50.781250
140,50.781250
141,54.687500
142,54.687500
143,54.687500
144,54.687500
145,54.687500
146,58.593750
147,58.593750
148,58.593750
149,58.593750
150,58.593750
151,58.593750
152,62.500000
153,62.500000
154,62.500000
155,62.500000
156,62.500000
157,66.406250
158,66.406250
159,66.406250
160,66.406250
161,66.406250
162,66.406250
163,66.406250
164,70.312500
165,70.312500
166,70.312500
167,70.312500
168,74.218750
169,74.218750
170,74.218750
171,74.218750
172,74.218750
173,74.218750
174,74.218750
175,78.125000
176,78.125000
177,78.125000
178,78.125000
179,78.125000
180,78.125000
181,78.125000
182,78.125000
183,82.031250
184,82.031250
185,82.031250
186,82.031250
187,82.031250
188,85.937500
189,85.937500
190,85.937500
191,85.937500
192,85.937500
193,85.937500
194,85.937500
195,89.843750
196,89.843750
197,89.843750
198,89.843750
199,89.843750
200,89.843750
201,89.843750
202,89.843750
203,93.750000
204,93.750000
205,93.750000
206,93.750000
207,93.750000
208,93.750000
209,97.656250
210,97.656250
211,97.656250
212,97.656250
213,97.656250
214,97.656250
215,97.656250
216,97.656250
217,97.656250
218,97.656250
219,101.562500
220,101.562500
221,101.562500
222,101.562500
223,101.562500
224,101.562500
225,101.562500
226,101.562500
227,101.562500
228,105.468750
229,105.468750
230,105.468750
231,105.468750
232,105.468750
233,105.468750
234,105.468750
235,105.468750
236,105.468750
237,105.468750
238,109.375000
239,109.375000
240,109.375000
241,109.375000
242,109.375000
243,109.375000
244,109.375000
245,109.375000
246,109.375000
247,109.375000
248,109.375000
249,113.281250
250,109.375000
251,113.281250
252,113.281250
253,113.281250
254,113.281250
255,113.281250
256,113.281250
257,113.281250
258,113.281250
259,113.281250
260,113.281250
261,113.281250
262,113.281250
263,113.281250
264,117.187500
265,117.187500
266,117.187500
267,117.187500
268,117.187500
269,117.187500
270,117.187500
271,117.187500
272,117.187500
273,117.187500
274,117.187500
275,117.187500
276,117.187500
277,117.187500
278,117.187500
279,117.187500
280,117.187500
281,117.187500
282,117.187500
283,117.187500
284,121.093750
285,121.093750
286,121.093750
287,121.093750
288,121.093750
289,121.093750
290,121.093750
291,121.093750
292,121.093750
293,121.093750
294,121.093750
295,121.093750
296,121.093750
297,121.093750
298,121.093750
299,121.093750
300,121.093750
301,121.093750
302,121.093750
303,121.093750
304,121.093750
305,121.093750
306,125.000000
307,121.093750
308,121.093750
309,121.093750
310,121.093750
311,121.093750
312,121.093750
313,121.093750
314,121.093750
315,121.093750
316,121.093750
317,121.093750
318,121.093750
319,121.093750
320,121.093750
321,121.093750
322,121.093750
323,121.093750
324,121.093750
325,121.093750
326,121.093750
327,121.093750
328,121.093750
329,121.093750
330,121.093750
331,121.093750
332,121.093750
333,121.093750
334,121.093750
335,121.093750
336,121.093750
337,121.093750
338,121.093750
339,121.093750
340,121.093750
341,121.093750
342,121.093750
343,121.093750
344,121.093750
345,121.093750
346,121.093750
347,121.093750
348,121.093750
349,121.093750
350,121.093750
351,121.093750
352,121.093750
353,121.093750
354,117.187500
355,121.093750
356,117.187500
357,117.187500
358,117.187500
359,117.187500
360,117.187500
361,117.187500
362,117.187500
363,117.187500
364,117.187500
365,117.187500
366,117.187500
367,117.187500
368,117.187500
369,117.187500
370,117.187500
371,117.187500
372,117.187500
373,113.281250
374,113.281250
375,113.281250
376,113.281250
377,113.281250
378,113.281250
379,113.281250
380,113.281250
381,113.281250
382,113.281250
383,113.281250
384,113.281250
385,113.281250
386,113.281250
387,113.281250
388,113.281250
389,109.375000
390,109.375000
391,109.375000
392,109.375000
393,109.375000
394,109.375000
395,109.375000
396,109.375000
397,109.375000
398,109.375000
399,109.375000
400,105.468750
401,105.468750
402,105.468750
403,105.468750
404,105.468750
405,105.468750
406,105.468750
407,105.468750
408,105.468750
409,105.468750
410,101.562500
411,101.562500
412,101.562500
413,101.562500
414,101.562500
415,101.562500
416,101.562500
417,101.562500
418,97.656250
419,97.656250
420,97.656250
421,97.656250
422,97.656250
423,97.656250
424,97.656250
425,97.656250
426,97.656250
427,97.656250
428,93.750000
429,93.750000
430,93.750000
431,93.750000
432,93.750000
433,93.750000
434,89.843750
435,89.843750
436,89.843750
437,89.843750
438,89.843750
439,89.843750
440,89.843750
441,85.937500
442,85.937500
443,85.937500
444,85.937500
445,85.937500
446,85.937500
447,85.937500
448,85.937500
449,82.031250
450,82.031250
451,82.031250
452,82.031250
453,82.031250
454,82.031250
455,82.031250
456,78.125000
457,78.125000
458,78.125000
459,78.125000
460,78.125000
461,74.218750
462,74.218750
463,74.218750
464,74.218750
465,74.218750
466,74.218750
467,74.218750
468,70.312500
469,70.312500
470,70.312500
471,70.312500
472,70.312500
473,66.406250
474,66.406250
475,66.406250
476,66.406250
477,66.406250
478,66.406250
479,62.500000
480,62.500000
481,62.500000
482,62.500000
483,62.500000
484,62.500000
485,58.593750
486,58.593750
487,58.593750
488,58.593750
489,58.593750
490,54.687500
491,54.687500
492,54.687500
493,54.687500
494,54.687500
495,50.781250
496,50.781250
497,50.781250
498,50.781250
499,50.781250
500,46.875000
501,46.875000
502,46.875000
503,46.875000
504,46.875000
505,46.875000
506,42.968750
507,42.968750
508,42.968750
509,39.062500
510,39.062500
511,39.062500
512,39.062500
513,39.062500
514,39.062500
515,35.156250
516,35.156250
517,35.156250
518,35.156250
519,31.250000
520,31.250000
521,31.250000
522,31.250000
523,31.250000
524,31.250000
525,27.343750
526,27.343750
527,27.343750
528,27.343750
529,23.437500
530,23.437500
531,23.437500
532,23.437500
533,19.531250
534,19.531250
535,19.531250
536,19.531250
537,19.531250
538,15.625000
539,15.625000
540,15.625000
541,15.625000
542,15.625000
543,11.718750
544,11.718750
545,11.718750
546,11.718750
547,7.812500
548,7.812500
549,7.812500
550,7.812500
551,7.812500
552,3.906250
553,3.906250
554,3.906250
555,0.000000
556,0.000000
557,0.000000
558,0.000000
559,0.000000
560,-3.906250
561,-3.906250
562,-3.906250
563,-3.906250
564,-7.812500
565,-7.812500
566,-7.812500
567,-11.718750
568,-11.718750
569,-11.718750
570,-11.718750
571,-11.718750
572,-15.625000
573,-15.625000
574,-15.625000
575,-15.625000
576,-19.531250
577,-19.531250
578,-19.531250
579,-19.531250
580,-23.437500
581,-23.437500
582,-23.437500
583,-23.437500
584,-27.343750
585,-27.343750
586,-27.343750
587,-27.343750
588,-31.250000
589,-31.250000
590,-31.250000
591,-31.250000
592,-35.156250
593,-35.156250
594,-35.156250
595,-35.156250
596,-39.062500
597,-39.062500
598,-39.062500
599,-39.062500
600,-39.062500
601,-42.968750
602,-42.968750
603,-42.968750
604,-42.968750
605,-42.968750
606,-46.875000
607,-46.875000
608,-46.875000
609,-50.781250
610,-50.781250
611,-50.781250
612,-50.781250
613,-50.781250
614,-54.687500
615,-54.687500
616,-54.687500
617,-54.687500
618,-58.593750
619,-58.593750
620,-58.593750
621,-58.593750
622,-62.500000
623,-62.500000
624,-62.500000
625,-62.500000
626,-66.406250
627,-66.406250
628,-66.406250
629,-66.406250
630,-70.312500
631,-70.312500
632,-70.312500
633,-70.312500
634,-70.312500
635,-74.218750
636,-74.218750
637,-74.218750
638,-78.125000
639,-78.125000
640,-78.125000
641,-78.125000
642,-78.125000
643,-78.125000
644,-82.031250
645,-82.031250
646,-82.031250
647,-82.031250
648,-85.937500
649,-85.937500
650,-85.937500
651,-85.937500
652,-85.937500
653,-89.843750
654,-89.843750
655,-89.843750
656,-89.843750
657,-93.750000
658,-93.750000
659,-93.750000
660,-93.750000
661,-93.750000
662,-97.656250
663,-97.656250
664,-97.656250
665,-97.656250
666,-97.656250
667,-101.562500
668,-101.562500
669,-101.562500
670,-101.562500
671,-101.562500
672,-105.468750
673,-105.468750
674,-105.468750
675,-105.468750
676,-109.375000
677,-109.375000
678,-109.375000
679,-109.375000
680,-113.281250
681,-109.375000
682,-113.281250
683,-113.281250
684,-113.281250
685,-113.281250
686,-113.281250
687,-113.281250
688,-117.187500
689,-117.187500
690,-117.187500
691,-117.187500
692,-121.093750
693,-121.093750
694,-121.093750
695,-121.093750
696,-121.093750
697,-125.000000
698,-125.000000
699,-125.000000
700,-125.000000
701,-125.000000
702,-125.000000
703,-125.000000
704,-128.906250
705,-128.906250
706,-128.906250
707,-128.906250
708,-128.906250
709,-128.906250
710,-132.812500
711,-132.812500
712,-132.812500
713,-132.812500
714,-132.812500
715,-132.812500
716,-136.718750
717,-136.718750
718,-136.718750
719,-136.718750
720,-136.718750
721,-136.718750
722,-136.718750
723,-140.625000
724,-140.625000
725,-140.625000
726,-140.625000
727,-140.625000
728,-140.625000
729,-140.625000
730,-144.531250
731,-144.531250
732,-144.531250
733,-144.531250
734,-144.531250
735,-144.531250
736,-144.531250
737,-144.531250
738,-148.437500
739,-148.437500
740,-148.437500
741,-148.437500
742,-148.437500
743,-148.437500
744,-148.437500
745,-148.437500
746,-148.437500
747,-152.343750
748,-152.343750
749,-152.343750
750,-152.343750
751,-152.343750
752,-152.343750
753,-152.343750
754,-152.343750
755,-152.343750
756,-152.343750
757,-152.343750
758,-156.250000
759,-156.250000
760,-156.250000
761,-156.250000
762,-156.250000
763,-156.250000
764,-156.250000
765,-156.250000
766,-156.250000
767,-156.250000
768,-156.250000
769,-156.250000
770,-160.156250
771,-160.156250
772,-160.156250
773,-160.156250
774,-160.156250
775,-160.156250
776,-160.156250
777,-160.156250
778,-160.156250
779,-160.156250
780,-160.156250
781,-160.156250
782,-160.156250
783,-160.156250
784,-160.156250
785,-160.156250
786,-160.156250
787,-164.062500
788,-164.062500
789,-164.062500
790,-164.062500
791,-164.062500
792,-164.062500
793,-164.062500
794,-164.062500
795,-164.062500
796,-164.062500
797,-164.062500
798,-164.062500
799,-164.062500
800,-164.062500
801,-164.062500
802,-164.062500
803,-164.062500
804,-164.062500
805,-164.062500
806,-164.062500
807,-164.062500
808,-164.062500
809,-164.062500
810,-164.062500
811,-164.062500
812,-164.062500
813,-164.062500
814,-164.062500
815,-164.062500
816,-164.062500
817,-164.062500
818,-164.062500
819,-164.062500
820,-164.062500
821,-164.062500
822,-164.062500
823,-164.062500
824,-164.062500
825,-164.062500
826,-164.062500
827,-164.062500
828,-164.062500
829,-164.062500
830,-164.062500
831,-164.062500
832,-164.062500
833,-164.062500
834,-164.062500
835,-164.062500
836,-160.156250
837,-160.156250
838,-160.156250
839,-160.156250
840,-160.156250
841,-160.156250
842,-164.062500
843,-160.156250
844,-160.156250
845,-160.156250
846,-160.156250
847,-160.156250
848,-160.156250
849,-160.156250
850,-160.156250
851,-160.156250
852,-160.156250
853,-160.156250
854,-160.156250
855,-156.250000
856,-156.250000
857,-156.250000
858,-156.250000
859,-156.250000
860,-156.250000
861,-156.250000
862,-156.250000
863,-156.250000
864,-156.250000
865,-156.250000
866,-156.250000
867,-152.343750
868,-152.343750
869,-152.343750
870,-152.343750
871,-152.343750
872,-152.343750
873,-152.343750
874,-152.343750
875,-152.343750
876,-148.437500
877,-148.437500
878,-148.437500
879,-148.437500
880,-148.437500
881,-148.437500
882,-148.437500
883,-148.437500
884,-148.437500
885,-148.437500
886,-148.437500
887,-144.531250
888,-144.531250
889,-144.531250
890,-144.531250
891,-144.531250
892,-144.531250
893,-144.531250
894,-140.625000
895,-140.625000
896,-140.625000
897,-140.625000
898,-140.625000
899,-140.625000
900,-136.718750
901,-136.718750
902,-136.718750
903,-136.718750
904,-136.718750
905,-136.718750
906,-136.718750
907,-132.812500
908,-132.812500
909,-132.812500
910,-132.812500
911,-132.812500
912,-132.812500
913,-132.812500
914,-128.906250
915,-132.812500
916,-128.906250
917,-128.906250
918,-128.906250
919,-128.906250
920,-128.906250
921,-125.000000
922,-125.000000
923,-125.000000
924,-125.000000
925,-125.000000
926,-121.093750
927,-121.093750
928,-121.093750
929,-121.093750
930,-121.093750
931,-121.093750
932,-117.187500
933,-117.187500
934,-117.187500
935,-117.187500
936,-117.187500
937,-113.281250
938,-113.281250
939,-113.281250
940,-113.281250
941,-113.281250
942,-113.281250
943,-109.375000
944,-109.375000
945,-109.375000
946,-109.375000
947,-109.375000
948,-109.375000
949,-105.468750
950,-105.468750
951,-105.468750
952,-105.468750
953,-101.562500
954,-101.562500
955,-101.562500
956,-101.562500
957,-101.562500
958,-97.656250
959,-97.656250
960,-97.656250
961,-97.656250
962,-97.656250
963,-97.656250
964,-93.750000
965,-93.750000
966,-93.750000
967,-93.750000
968,-89.843750
969,-89.843750
970,-89.843750
971,-89.843750
972,-85.937500
973,-85.937500
974,-85.937500
975,-85.937500
976,-85.937500
977,-82.031250
978,-82.031250
979,-82.031250
980,-82.031250
981,-82.031250
982,-78.125000
983,-78.125000
984,-78.125000
985,-74.218750
986,-74.218750
987,-74.218750
988,-74.218750
989,-74.218750
990,-74.218750
991,-70.312500
992,-70.312500
993,-70.312500
994,-70.312500
995,-66.406250
996,-66.406250
997,-66.406250
998,-66.406250
999,-62.500000
1000,-62.500000
1001,-62.500000
1002,-62.500000
1003,-58.593750
1004,-62.500000
1005,-58.593750
1006,-58.593750
1007,-54.687500
1008,-54.687500
1009,-54.687500
1010,-54.687500
1011,-54.687500
1012,-54.687500
1013,-50.781250
1014,-50.781250
1015,-50.781250
1016,-46.875000
1017,-46.875000
1018,-46.875000
1019,-46.875000
1020,-42.968750
1021,-42.968750
1022,-42.968750
1023,-42.968750
1024,-42.968750
1025,-39.062500
1026,-39.062500
1027,-39.062500
1028,-39.062500
1029,-35.156250
1030,-35.156250
1031,-35.156250
1032,-35.156250
1033,-31.250000
1034,-31.250000
1035,-31.250000
1036,-31.250000
1037,-27.343750
1038,-27.343750
1039,-27.343750
1040,-27.343750
1041,-23.437500
1042,-23.437500
1043,-23.437500
1044,-23.437500
1045,-23.437500
1046,-19.531250
1047,-19.531250
1048,-19.531250
1049,-19.531250
1050,-15.625000
1051,-15.625000
1052,-15.625000
1053,-11.718750
1054,-11.718750
1055,-11.718750
1056,-11.718750
1057,-7.812500
1058,-7.812500
1059,-7.812500
1060,-7.812500
1061,-3.906250
1062,-7.812500
1063,-3.906250
1064,-3.906250
1065,-3.906250
1066,-3.906250
1067,0.000000
1068,0.000000
1069,0.000000
1070,0.000000
1071,3.906250
1072,3.906250
1073,3.906250
1074,3.906250
1075,7.812500
1076,7.812500
1077,7.812500
1078,7.812500
1079,11.718750
1080,11.718750
1081,11.718750
1082,11.718750
1083,11.718750
1084,15.625000
1085,15.625000
1086,15.625000
1087,15.625000
1088,15.625000
1089,19.531250
1090,19.531250
1091,19.531250
1092,19.531250
1093,23.437500
1094,23.437500
1095,23.437500
1096,23.437500
1097,23.437500
1098,27.343750
1099,27.343750
1100,27.343750
1101,27.343750
1102,31.250000
1103,31.250000
1104,31.250000
1105,31.250000
1106,31.250000
1107,35.156250
1108,35.156250
1109,35.156250
1110,35.156250
1111,35.156250
1112,39.062500
1113,39.062500
1114,39.062500
1115,39.062500
1116,39.062500
1117,42.968750
1118,42.968750
1119,42.968750
1120,42.968750
1121,46.875000
1122,46.875000
1123,46.875000
1124,46.875000
1125,46.875000
1126,46.875000
1127,50.781250
1128,50.781250
1129,50.781250
1130,50.781250
1131,54.687500
1132,50.781250
1133,54.687500
1134,54.687500
1135,54.687500
1136,54.687500
1137,58.593750
1138,58.593750
1139,58.593750
1140,58.593750
1141,58.593750
1142,58.593750
1143,62.500000
1144,62.500000
1145,62.500000
1146,62.500000
1147,62.500000
1148,66.406250
1149,66.406250
1150,66.406250
1151,66.406250
1152,66.406250
1153,70.312500
1154,70.312500
1155,70.312500
1156,70.312500
1157,70.312500
1158,70.312500
1159,74.218750
1160,74.218750
1161,74.218750
1162,74.218750
1163,74.218750
1164,74.218750
1165,78.125000
1166,78.125000
1167,78.125000
1168,78.125000
1169,78.125000
1170,78.125000
1171,82.031250
1172,82.031250
1173,82.031250
1174,82.031250
1175,82.031250
1176,82.031250
1177,82.031250
1178,85.937500
1179,85.937500
1180,85.937500
1181,85.937500
1182,85.937500
1183,85.937500
1184,85.937500
1185,85.937500
1186,89.843750
1187,89.843750
1188,89.843750
1189,89.843750
1190,89.843750
1191,89.843750
1192,89.843750
1193,93.750000
1194,93.750000
1195,93.750000
1196,93.750000
1197,93.750000
1198,93.750000
1199,93.750000
1200,93.750000
1201,97.656250
1202,97.656250
1203,97.656250
1204,97.656250
1205,97.656250
1206,97.656250
1207,97.656250
1208,97.656250
1209,101.562500
1210,101.562500
1211,101.562500
1212,101.562500
1213,101.562500
1214,101.562500
1215,101.562500
1216,101.562500
1217,101.562500
1218,105.468750
1219,105.468750
1220,105.468750
1221,105.468750
1222,105.468750
1223,105.468750
1224,105.468750
1225,105.468750
1226,105.468750
1227,105.468750
1228,109.375000
1229,109.375000
1230,109.375000
1231,109.375000
1232,109.375000
1233,109.375000
1234,109.375000
1235,109.375000
1236,109.375000
1237,109.375000
1238,109.375000
1239,109.375000
1240,113.281250
1241,113.281250
1242,113.281250
1243,113.281250
1244,113.281250
1245,113.281250
1246,113.281250
1247,113.281250
1248,113.281250
1249,113.281250
1250,113.281250
1251,113.281250
1252,113.281250
1253,117.187500
1254,113.281250
1255,113.281250
1256,113.281250
1257,117.187500
1258,117.187500
1259,117.187500
1260,117.187500
1261,117.187500
1262,117.187500
1263,117.187500
1264,117.187500
1265,117.187500
1266,117.187500
1267,117.187500
1268,117.187500
1269,117.187500
1270,117.187500
1271,117.187500
1272,117.187500
1273,121.093750
1274,121.093750
1275,121.093750
1276,121.093750
1277,121.093750
1278,121.093750
1279,121.093750
1280,121.093750
1281,121.093750
1282,121.093750
1283,121.093750
1284,121.093750
1285,121.093750
1286,121.093750
1287,121.093750
1288,121.093750
1289,121.093750
1290,121.093750
1291,121.093750
1292,121.093750
1293,121.093750
1294,121.093750
1295,121.093750
1296,121.093750
1297,121.093750
1298,121.093750
1299,121.093750
1300,121.093750
1301,121.093750
1302,121.093750
1303,121.093750
1304,121.093750
1305,121.093750
1306,121.093750
1307,121.093750
1308,121.093750
1309,121.093750
1310,121.093750
1311,121.093750
1312,121.093750
1313,121.093750
1314,121.093750
1315,121.093750
1316,121.093750
1317,121.093750
1318,121.093750
1319,121.093750
1320,121.093750
1321,121.093750
1322,121.093750
1323,121.093750
1324,121.093750
1325,121.093750
1326,121.093750
1327,121.093750
1328,121.093750
1329,121.093750
1330,121.093750
1331,121.093750
1332,121.093750
1333,121.093750
1334,121.093750
1335,121.093750
1336,121.093750
1337,121.093750
1338,121.093750
1339,121.093750
1340,121.093750
1341,121.093750
1342,121.093750
1343,121.093750
1344,117.187500
1345,117.187500
1346,117.187500
1347,117.187500
1348,117.187500
1349,117.187500
1350,117.187500
1351,117.187500
1352,117.187500
1353,117.187500
1354,117.187500
1355,117.187500
1356,117.187500
1357,117.187500
1358,117.187500
1359,117.187500
1360,117.187500
1361,117.187500
1362,117.187500
1363,117.187500
1364,117.187500
1365,113.281250
1366,113.281250
1367,113.281250
1368,113.281250
1369,113.281250
1370,113.281250
1371,113.281250
1372,113.281250
1373,113.281250
1374,113.281250
1375,113.281250
1376,113.281250
1377,113.281250
1378,109.375000
1379,109.375000
1380,109.375000
1381,109.375000
1382,109.375000
1383,109.375000
1384,109.375000
1385,109.375000
1386,109.375000
1387,109.375000
1388,105.468750
1389,109.375000
1390,105.468750
1391,109.375000
1392,105.468750
1393,105.468750
1394,105.468750
1395,105.468750
1396,105.468750
1397,105.468750
1398,105.468750
1399,105.468750
1400,101.562500
1401,101.562500
1402,101.562500
1403,101.562500
1404,101.562500
1405,101.562500
1406,101.562500
1407,101.562500
1408,97.656250
1409,101.562500
1410,97.656250
1411,97.656250
1412,97.656250
1413,97.656250
1414,97.656250
1415,97.656250
1416,97.656250
1417,93.750000
1418,93.750000
1419,93.750000
1420,93.750000
1421,93.750000
1422,93.750000
1423,93.750000
1424,93.750000
1425,93.750000
1426,89.843750
1427,89.843750
1428,89.843750
1429,89.843750
1430,89.843750
1431,85.937500
1432,85.937500
1433,85.937500
1434,85.937500
1435,85.937500
1436,85.937500
1437,85.937500
1438,85.937500
1439,82.031250
1440,82.031250
1441,82.031250
1442,82.031250
1443,82.031250
1444,82.031250
1445,82.031250
1446,78.125000
1447,78.125000
1448,78.125000
1449,78.125000
1450,78.125000
1451,74.218750
1452,74.218750
1453,74.218750
1454,74.218750
1455,74.218750
1456,74.218750
1457,70.312500
1458,70.312500
1459,70.312500
1460,70.312500
1461,70.312500
1462,70.312500
1463,70.312500
1464,66.406250
1465,66.406250
1466,66.406250
1467,66.406250
1468,66.406250
1469,62.500000
1470,62.500000
1471,62.500000
1472,62.500000
1473,62.500000
1474,58.593750
1475,58.593750
1476,58.593750
1477,58.593750
1478,58.593750
1479,54.687500
1480,54.687500
1481,54.687500
1482,54.687500
1483,54.687500
1484,54.687500
1485,54.687500
1486,50.781250
1487,50.781250
1488,50.781250
1489,46.875000
1490,46.875000
1491,46.875000
1492,46.875000
1493,46.875000
1494,46.875000
1495,46.875000
1496,42.968750
1497,42.968750
1498,42.968750
1499,39.062500
1500,39.062500
1501,39.062500
1502,39.062500
1503,39.062500
1504,39.062500
1505,35.156250
1506,35.156250
1507,35.156250
1508,31.250000
1509,31.250000
1510,31.250000
1511,31.250000
1512,31.250000
1513,31.250000
1514,27.343750
1515,27.343750
1516,27.343750
1517,27.343750
1518,23.437500
1519,23.437500
1520,23.437500
1521,23.437500
1522,23.437500
1523,19.531250
1524,19.531250
1525,19.531250
1526,19.531250
1527,15.625000
1528,15.625000
1529,15.625000
1530,15.625000
1531,15.625000
1532,11.718750
1533,11.718750
1534,11.718750
1535,11.718750
1536,11.718750
1537,7.812500
1538,7.812500
1539,3.906250
1540,3.906250
1541,3.906250
1542,3.906250
1543,3.906250
1544,3.906250
1545,0.000000
1546,0.000000
1547,0.000000
1548,0.000000
1549,-3.906250
1550,-3.906250
1551,-3.906250
1552,-3.906250
1553,-7.812500
1554,-7.812500
1555,-7.812500
1556,-7.812500
1557,-11.718750
1558,-11.718750
1559,-11.718750
1560,-11.718750
1561,-15.625000
1562,-15.625000
1563,-15.625000
1564,-15.625000
1565,-15.625000
1566,-19.531250
1567,-19.531250
1568,-19.531250
1569,-23.437500
1570,-23.437500
1571,-23.437500
1572,-23.437500
1573,-23.437500
1574,-27.343750
1575,-27.343750
1576,-27.343750
1577,-27.343750
1578,-31.250000
1579,-31.250000
1580,-31.250000
1581,-35.156250
1582,-35.156250
1583,-35.156250
1584,-35.156250
1585,-35.156250
1586,-35.156250
1587,-39.062500
1588,-39.062500
1589,-39.062500
1590,-42.968750
1591,-42.968750
1592,-42.968750
1593,-42.968750
1594,-46.875000
1595,-46.875000
1596,-46.875000
1597,-46.875000
1598,-50.781250
1599,-50.781250
1600,-50.781250
1601,-50.781250
1602,-54.687500
1603,-54.687500
1604,-54.687500
1605,-54.687500
1606,-58.593750
1607,-58.593750
1608,-58.593750
1609,-58.593750
1610,-62.500000
1611,-58.593750
1612,-62.500000
1613,-62.500000
1614,-66.406250
1615,-62.500000
1616,-66.406250
1617,-66.406250
1618,-66.406250
1619,-70.312500
1620,-70.312500
1621,-70.312500
1622,-70.312500
1623,-74.218750
1624,-74.218750
1625,-74.218750
1626,-74.218750
1627,-74.218750
1628,-74.218750
1629,-78.125000
1630,-78.125000
1631,-78.125000
1632,-82.031250
1633,-82.031250
1634,-82.031250
1635,-82.031250
1636,-82.031250
1637,-82.031250
1638,-85.937500
1639,-85.937500
1640,-85.937500
1641,-85.937500
1642,-89.843750
1643,-89.843750
1644,-89.843750
1645,-89.843750
1646,-89.843750
1647,-93.750000
1648,-93.750000
1649,-93.750000
1650,-93.750000
1651,-97.656250
1652,-97.656250
1653,-97.656250
1654,-97.656250
1655,-97.656250
1656,-101.562500
1657,-101.562500
1658,-101.562500
1659,-101.562500
1660,-105.468750
1661,-105.468750
1662,-105.468750
1663,-105.468750
1664,-105.468750
1665,-105.468750
1666,-109.375000
1667,-109.375000
1668,-109.375000
1669,-109.375000
1670,-109.375000
1671,-113.281250
1672,-113.281250
1673,-113.281250
1674,-113.281250
1675,-113.281250
1676,-117.187500
1677,-117.187500
1678,-117.187500
1679,-117.187500
1680,-117.187500
1681,-121.093750
1682,-121.093750
1683,-121.093750
1684,-121.093750
1685,-121.093750
1686,-121.093750
1687,-125.000000
1688,-125.000000
1689,-125.000000
1690,-125.000000
1691,-128.906250
1692,-125.000000
1693,-128.906250
1694,-128.906250
1695,-128.906250
1696,-128.906250
1697,-128.906250
1698,-128.906250
1699,-132.812500
1700,-132.812500
1701,-132.812500
1702,-132.812500
1703,-132.812500
1704,-132.812500
1705,-136.718750
1706,-136.718750
1707,-136.718750
1708,-136.718750
1709,-136.718750
1710,-136.718750
1711,-136.718750
1712,-140.625000
1713,-140.625000
1714,-140.625000
1715,-140.625000
1716,-140.625000
1717,-140.625000
1718,-144.531250
1719,-144.531250
1720,-144.531250
1721,-144.531250
1722,-144.531250
1723,-144.531250
1724,-144.531250
1725,-144.531250
1726,-148.437500
1727,-148.437500
1728,-148.437500
1729,-148.437500
1730,-148.437500
1731,-148.437500
1732,-148.437500
1733,-148.437500
1734,-148.437500
1735,-152.343750
1736,-152.343750
1737,-152.343750
1738,-152.343750
1739,-152.343750
1740,-152.343750
1741,-152.343750
1742,-152.343750
1743,-152.343750
1744,-152.343750
1745,-156.250000
1746,-156.250000
1747,-156.250000
1748,-156.250000
1749,-156.250000
1750,-156.250000
1751,-156.250000
1752,-156.250000
1753,-156.250000
1754,-156.250000
1755,-156.250000
1756,-156.250000
1757,-160.156250
1758,-160.156250
1759,-160.156250
1760,-160.156250
1761,-160.156250
1762,-160.156250
1763,-160.156250
1764,-160.156250
1765,-160.156250
1766,-160.156250
1767,-160.156250
1768,-160.156250
1769,-160.156250
1770,-160.156250
1771,-160.156250
1772,-160.156250
1773,-160.156250
1774,-164.062500
1775,-164.062500
1776,-164.062500
1777,-164.062500
1778,-164.062500
1779,-164.062500
1780,-164.062500
1781,-164.062500
1782,-164.062500
1783,-164.062500
1784,-164.062500
1785,-164.062500
1786,-164.062500
1787,-164.062500
1788,-164.062500
1789,-164.062500
1790,-164.062500
1791,-164.062500
1792,-164.062500
1793,-164.062500
1794,-164.062500
1795,-164.062500
1796,-164.062500
1797,-164.062500
1798,-164.062500
1799,-164.062500
1800,-164.062500
1801,-164.062500
1802,-164.062500
1803,-164.062500
1804,-164.062500
1805,-164.062500
1806,-164.062500
1807,-164.062500
1808,-164.062500
1809,-164.062500
1810,-164.062500
1811,-164.062500
1812,-164.062500
1813,-164.062500
1814,-164.062500
1815,-164.062500
1816,-164.062500
1817,-164.062500
1818,-164.062500
1819,-164.062500
1820,-164.062500
1821,-164.062500
1822,-164.062500
1823,-164.062500
1824,-164.062500
1825,-164.062500
1826,-164.062500
1827,-164.062500
1828,-164.062500
1829,-160.156250
1830,-160.156250
1831,-164.062500
1832,-160.156250
1833,-160.156250
1834,-160.156250
1835,-160.156250
1836,-160.156250
1837,-160.156250
1838,-160.156250
1839,-160.156250
1840,-160.156250
1841,-160.156250
1842,-160.156250
1843,-160.156250
1844,-160.156250
1845,-156.250000
1846,-160.156250
1847,-160.156250
1848,-156.250000
1849,-156.250000
1850,-156.250000
1851,-156.250000
1852,-156.250000
1853,-156.250000
1854,-156.250000
1855,-156.250000
1856,-156.250000
1857,-156.250000
1858,-152.343750
1859,-152.343750
1860,-152.343750
1861,-152.343750
1862,-152.343750
1863,-152.343750
1864,-152.343750
1865,-152.343750
1866,-152.343750
1867,-148.437500
1868,-148.437500
1869,-148.437500
1870,-148.437500
1871,-148.437500
1872,-148.437500
1873,-148.437500
1874,-148.437500
1875,-148.437500
1876,-148.437500
1877,-144.531250
1878,-144.531250
1879,-144.531250
1880,-144.531250
1881,-144.531250
1882,-144.531250
1883,-144.531250
1884,-144.531250
1885,-140.625000
1886,-140.625000
1887,-140.625000
1888,-140.625000
1889,-140.625000
1890,-140.625000
1891,-136.718750
1892,-136.718750
1893,-136.718750
1894,-136.718750
1895,-136.718750
1896,-136.718750
1897,-136.718750
1898,-136.718750
1899,-132.812500
1900,-132.812500
1901,-132.812500
1902,-132.812500
1903,-132.812500
1904,-128.906250
1905,-128.906250
1906,-128.906250
1907,-128.906250
1908,-128.906250
1909,-128.906250
1910,-125.000000
1911,-125.000000
1912,-125.000000
1913,-125.000000
1914,-125.000000
1915,-125.000000
1916,-125.000000
1917,-121.093750
1918,-121.093750
1919,-121.093750
1920,-121.093750
1921,-121.093750
1922,-117.187500
1923,-117.187500
1924,-117.187500
1925,-117.187500
1926,-117.187500
1927,-117.187500
1928,-113.281250
1929,-113.281250
1930,-113.281250
1931,-113.281250
1932,-113.281250
1933,-109.375000
1934,-109.375000
1935,-109.375000
1936,-109.375000
1937,-109.375000
1938,-109.375000
1939,-105.468750
1940,-105.468750
1941,-105.468750
1942,-101.562500
1943,-101.562500
1944,-101.562500
1945,-101.562500
1946,-101.562500
1947,-101.562500
1948,-101.562500
1949,-97.656250
1950,-97.656250
1951,-97.656250
1952,-97.656250
1953,-93.750000
1954,-93.750000
1955,-93.750000
1956,-93.750000
1957,-93.750000
1958,-89.843750
1959,-89.843750
1960,-89.843750
1961,-89.843750
1962,-85.937500
1963,-85.937500
1964,-85.937500
1965,-85.937500
1966,-85.937500
1967,-82.031250
1968,-82.031250
1969,-82.031250
1970,-82.031250
1971,-82.031250
1972,-78.125000
1973,-78.125000
1974,-78.125000
1975,-74.218750
1976,-74.218750
1977,-74.218750
1978,-74.218750
1979,-74.218750
1980,-70.312500
1981,-70.312500
1982,-70.312500
1983,-70.312500
1984,-66.406250
1985,-66.406250
1986,-66.406250
1987,-66.406250
1988,-66.406250
1989,-62.500000
1990,-62.500000
1991,-62.500000
1992,-62.500000
1993,-58.593750
1994,-58.593750
1995,-58.593750
1996,-58.593750
1997,-54.687500
1998,-54.687500
1999,-54.687500
2000,-54.687500
2001,-50.781250
2002,-50.781250
2003,-50.781250
2004,-50.781250
2005,-50.781250
2006,-46.875000
2007,-46.875000
2008,-46.875000
2009,-46.875000
2010,-42.968750
2011,-42.968750
2012,-42.968750
2013,-42.968750
2014,-39.062500
2015,-39.062500
2016,-39.062500
2017,-39.062500
2018,-39.062500
2019,-35.156250
2020,-35.156250
2021,-35.156250
2022,-31.250000
2023,-31.250000
2024,-31.250000
2025,-31.250000
2026,-31.250000
2027,-27.343750
2028,-27.343750
2029,-27.343750
2030,-27.343750
2031,-23.437500
2032,-23.437500
2033,-23.437500
2034,-23.437500
2035,-19.531250
2036,-19.531250
2037,-19.531250
2038,-19.531250
2039,-15.625000
2040,-15.625000
2041,-15.625000
2042,-15.625000
2043,-11.718750
2044,-11.718750
2045,-11.718750
2046,-11.718750
2047,-7.812500
2048,-7.812500
2049,-7.812500
2050,-7.812500
2051,-7.812500
2052,-3.906250
2053,-3.906250
2054,-3.906250
2055,-3.906250
2056,0.000000
2057,0.000000
2058,0.000000
2059,0.000000
2060,0.000000
2061,3.906250
2062,3.906250
2063,3.906250
2064,3.906250
2065,7.812500
2066,7.812500
2067,7.812500
2068,7.812500
2069,11.718750
2070,11.718750
2071,11.718750
2072,11.718750
2073,11.718750
2074,15.625000
2075,15.625000
2076,15.625000
2077,19.531250
2078,19.531250
2079,19.531250
2080,19.531250
2081,19.531250
2082,19.531250
2083,23.437500
2084,23.437500
2085,23.437500
2086,23.437500
2087,27.343750
2088,27.343750
2089,27.343750
2090,27.343750
2091,27.343750
2092,31.250000
2093,31.250000
2094,31.250000
2095,31.250000
2096,31.250000
2097,35.156250
2098,35.156250
2099,35.156250
2100,35.156250
2101,39.062500
2102,39.062500
2103,39.062500
2104,39.062500
2105,42.968750
2106,42.968750
2107,42.968750
2108,42.968750
2109,42.968750
2110,42.968750
2111,46.875000
2112,46.875000
2113,46.875000
2114,46.875000
2115,50.781250
2116,50.781250
2117,50.781250
2118,50.781250
2119,50.781250
2120,50.781250
2121,50.781250
2122,54.687500
2123,54.687500
2124,54.687500
2125,54.687500
2126,58.593750
2127,58.593750
2128,58.593750
2129,58.593750
2130,58.593750
2131,62.500000
2132,62.500000
2133,62.500000
2134,62.500000
2135,62.500000
2136,62.500000
2137,62.500000
2138,66.406250
2139,66.406250
2140,66.406250
2141,66.406250
2142,66.406250
2143,70.312500
2144,70.312500
2145,70.312500
2146,70.312500
2147,70.312500
2148,70.312500
2149,74.218750
2150,74.218750
2151,74.218750
2152,74.218750
2153,74.218750
2154,74.218750
2155,78.125000
2156,78.125000
2157,78.125000
2158,78.125000
2159,78.125000
2160,78.125000
2161,78.125000
2162,82.031250
2163,82.031250
2164,82.031250
2165,82.031250
2166,82.031250
2167,85.937500
2168,82.031250
2169,85.937500
2170,85.937500
2171,85.937500
2172,85.937500
2173,85.937500
2174,89.843750
2175,89.843750
2176,89.843750
2177,89.843750
2178,89.843750
2179,89.843750
2180,89.843750
2181,89.843750
2182,89.843750
2183,93.750000
2184,93.750000
2185,93.750000
2186,93.750000
2187,93.750000
2188,93.750000
2189,93.750000
2190,93.750000
2191,97.656250
2192,97.656250
2193,97.656250
2194,97.656250
2195,97.656250
2196,97.656250
2197,97.656250
2198,101.562500
2199,101.562500
2200,101.562500
2201,101.562500
2202,101.562500
2203,101.562500
2204,101.562500
2205,101.562500
2206,105.468750
2207,105.468750
2208,105.468750
2209,101.562500
2210,105.468750
2211,105.468750
2212,105.468750
2213,105.468750
2214,105.468750
2215,105.468750
2216,105.468750
2217,105.468750
2218,109.375000
2219,109.375000
2220,109.375000
2221,109.375000
2222,109.375000
2223,109.375000
2224,109.375000
2225,109.375000
2226,109.375000
2227,109.375000
2228,109.375000
2229,113.281250
2230,113.281250
2231,113.281250
2232,113.281250
2233,113.281250
2234,113.281250
2235,113.281250
2236,113.281250
2237,113.281250
2238,113.281250
2239,113.281250
2240,113.281250
2241,117.187500
2242,113.281250
2243,117.187500
2244,113.281250
2245,117.187500
2246,117.187500
2247,117.187500
2248,117.187500
2249,117.187500
2250,117.187500
2251,117.187500
2252,117.187500
2253,117.187500
2254,117.187500
2255,117.187500
2256,117.187500
2257,117.187500
2258,117.187500
2259,117.187500
2260,117.187500
2261,117.187500
2262,117.187500
2263,117.187500
2264,121.093750
2265,121.093750
2266,121.093750
2267,121.093750
2268,121.093750
2269,121.093750
2270,121.093750
2271,121.093750
2272,121.093750
2273,121.093750
2274,121.093750
2275,121.093750
2276,121.093750
2277,121.093750
2278,121.093750
2279,121.093750
2280,121.093750
2281,121.093750
2282,121.093750
2283,121.093750
2284,121.093750
2285,121.093750
2286,121.093750
2287,121.093750
2288,121.093750
2289,121.093750
2290,121.093750
2291,121.093750
2292,121.093750
2293,121.093750
2294,121.093750
2295,121.093750
2296,121.093750
2297,121.093750
2298,121.093750
2299,121.093750
2300,121.093750
2301,121.093750
2302,121.093750
2303,121.093750
2304,121.093750
2305,121.093750
2306,121.093750
2307,121.093750
2308,121.093750
2309,121.093750
2310,121.093750
2311,121.093750
2312,121.093750
2313,121.093750
2314,121.093750
2315,121.093750
2316,121.093750
2317,121.093750
2318,121.093750
2319,121.093750
2320,121.093750
2321,121.093750
2322,121.093750
2323,121.093750
2324,121.093750
2325,121.093750
2326,121.093750
2327,121.093750
2328,121.093750
2329,121.093750
2330,121.093750
2331,121.093750
2332,117.187500
2333,121.093750
2334,121.093750
2335,117.187500
2336,117.187500
2337,117.187500
2338,117.187500
2339,117.187500
2340,117.187500
2341,117.187500
2342,117.187500
2343,117.187500
2344,117.187500
2345,117.187500
2346,117.187500
2347,117.187500
2348,117.187500
2349,117.187500
2350,117.187500
2351,117.187500
2352,113.281250
2353,113.281250
2354,113.281250
2355,113.281250
2356,113.281250
2357,113.281250
2358,113.281250
2359,113.281250
2360,113.281250
2361,113.281250
2362,113.281250
2363,113.281250
2364,113.281250
2365,113.281250
2366,113.281250
2367,113.281250
2368,109.375000
2369,109.375000
2370,109.375000
2371,109.375000
2372,109.375000
2373,109.375000
2374,109.375000
2375,109.375000
2376,109.375000
2377,109.375000
2378,105.468750
2379,109.375000
2380,105.468750
2381,105.468750
2382,105.468750
2383,105.468750
2384,105.468750
2385,105.468750
2386,105.468750
2387,105.468750
2388,105.468750
2389,101.562500
2390,101.562500
2391,101.562500
2392,101.562500
2393,101.562500
2394,101.562500
2395,101.562500
2396,101.562500
2397,101.562500
2398,101.562500
2399,97.656250
2400,97.656250
2401,97.656250
2402,97.656250
2403,97.656250
2404,97.656250
2405,97.656250
2406,97.656250
2407,93.750000
2408,93.750000
2409,93.750000
2410,93.750000
2411,93.750000
2412,89.843750
2413,93.750000
2414,89.843750
2415,93.750000
2416,89.843750
2417,89.843750
2418,89.843750
2419,89.843750
2420,89.843750
2421,85.937500
2422,85.937500
2423,85.937500
2424,85.937500
2425,85.937500
2426,85.937500
2427,85.937500
2428,85.937500
2429,82.031250
2430,82.031250
2431,82.031250
2432,82.031250
2433,82.031250
2434,82.031250
2435,78.125000
2436,78.125000
2437,78.125000
2438,78.125000
2439,78.125000
2440,74.218750
2441,74.218750
2442,74.218750
2443,74.218750
2444,74.218750
2445,74.218750
2446,74.218750
2447,70.312500
2448,70.312500
2449,70.312500
2450,70.312500
2451,70.312500
2452,70.312500
2453,70.312500
2454,66.406250
2455,66.406250
2456,66.406250
2457,66.406250
2458,66.406250
2459,62.500000
2460,62.500000
2461,62.500000
2462,62.500000
2463,62.500000
2464,58.593750
2465,58.593750
2466,58.593750
2467,58.593750
2468,58.593750
2469,58.593750
2470,54.687500
2471,54.687500
2472,54.687500
2473,54.687500
2474,50.781250
2475,50.781250
2476,50.781250
2477,50.781250
2478,50.781250
2479,50.781250
2480,46.875000
2481,46.875000
2482,46.875000
2483,46.875000
2484,42.968750
2485,42.968750
2486,42.968750
2487,42.968750
2488,42.968750
2489,42.968750
2490,39.062500
2491,39.062500
2492,39.062500
2493,39.062500
2494,35.156250
2495,35.156250
2496,35.156250
2497,35.156250
2498,35.156250
2499,31.250000
2500,31.250000
2501,31.250000
2502,31.250000
2503,31.250000
2504,27.343750
2505,27.343750
2506,27.343750
2507,27.343750
2508,23.437500
2509,23.437500
2510,23.437500
2511,23.437500
2512,23.437500
2513,19.531250
2514,19.531250
2515,19.531250
2516,19.531250
2517,15.625000
2518,15.625000
2519,15.625000
2520,15.625000
2521,11.718750
2522,11.718750
2523,11.718750
2524,11.718750
2525,11.718750
2526,7.812500
2527,7.812500
2528,7.812500
2529,7.812500
2530,3.906250
2531,3.906250
2532,3.906250
2533,3.906250
2534,3.906250
2535,0.000000
2536,0.000000
2537,0.000000
2538,-3.906250
2539,-3.906250
2540,-3.906250
2541,-3.906250
2542,-7.812500
2543,-7.812500
2544,-7.812500
2545,-7.812500
2546,-7.812500
2547,-11.718750
2548,-11.718750
2549,-11.718750
2550,-15.625000
2551,-15.625000
2552,-15.625000
2553,-15.625000
2554,-15.625000
2555,-15.625000
2556,-19.531250
2557,-19.531250
2558,-19.531250
2559,-23.437500
2560,-23.437500
2561,-23.437500
2562,-23.437500
2563,-23.437500
2564,-27.343750
2565,-27.343750
2566,-27.343750
2567,-27.343750
2568,-31.250000
2569,-31.250000
2570,-31.250000
2571,-31.250000
2572,-35.156250
2573,-35.156250
2574,-35.156250
2575,-35.156250
2576,-39.062500
2577,-39.062500
2578,-39.062500
2579,-39.062500
2580,-42.968750
2581,-42.968750
2582,-42.968750
2583,-42.968750
2584,-46.875000
2585,-46.875000
2586,-46.875000
2587,-46.875000
2588,-46.875000
2589,-50.781250
2590,-50.781250
2591,-50.781250
2592,-50.781250
2593,-54.687500
2594,-54.687500
2595,-54.687500
2596,-54.687500
2597,-58.593750
2598,-58.593750
2599,-58.593750
2600,-58.593750
2601,-58.593750
2602,-62.500000
2603,-62.500000
2604,-62.500000
2605,-66.406250
2606,-66.406250
2607,-66.406250
2608,-66.406250
2609,-66.406250
2610,-70.312500
2611,-70.312500
2612,-70.312500
2613,-70.312500
2614,-74.218750
2615,-74.218750
2616,-74.218750
2617,-74.218750
2618,-78.125000
2619,-78.125000
2620,-78.125000
2621,-78.125000
2622,-82.031250
2623,-82.031250
2624,-82.031250
2625,-82.031250
2626,-82.031250
2627,-82.031250
2628,-85.937500
2629,-85.937500
2630,-85.937500
2631,-85.937500
2632,-89.843750
2633,-89.843750
2634,-89.843750
2635,-89.843750
2636,-93.750000
2637,-93.750000
2638,-93.750000
2639,-93.750000
2640,-97.656250
2641,-97.656250
2642,-97.656250
2643,-97.656250
2644,-97.656250
2645,-97.656250
2646,-101.562500
2647,-101.562500
2648,-101.562500
2649,-101.562500
2650,-101.562500
2651,-105.468750
2652,-105.468750
2653,-105.468750
2654,-105.468750
2655,-105.468750
2656,-109.375000
2657,-109.375000
2658,-109.375000
2659,-109.375000
2660,-109.375000
2661,-113.281250
2662,-113.281250
2663,-113.281250
2664,-113.281250
2665,-113.281250
2666,-117.187500
2667,-117.187500
2668,-117.187500
2669,-117.187500
2670,-117.187500
2671,-117.187500
2672,-121.093750
2673,-121.093750
2674,-121.093750
2675,-121.093750
2676,-125.000000
2677,-125.000000
2678,-125.000000
2679,-125.000000
2680,-125.000000
2681,-125.000000
2682,-125.000000
2683,-128.906250
2684,-128.906250
2685,-128.906250
2686,-128.906250
2687,-128.906250
2688,-128.906250
2689,-132.812500
2690,-132.812500
2691,-132.812500
2692,-132.812500
2693,-132.812500
2694,-132.812500
2695,-132.812500
2696,-132.812500
2697,-136.718750
2698,-136.718750
2699,-136.718750
2700,-136.718750
2701,-140.625000
2702,-140.625000
2703,-140.625000
2704,-140.625000
2705,-140.625000
2706,-140.625000
2707,-140.625000
2708,-140.625000
2709,-144.531250
2710,-144.531250
2711,-144.531250
2712,-144.531250
2713,-144.531250
2714,-144.531250
2715,-144.531250
2716,-144.531250
2717,-144.531250
2718,-148.437500
2719,-148.437500
2720,-148.437500
2721,-148.437500
2722,-148.437500
2723,-148.437500
2724,-148.437500
2725,-148.437500
2726,-152.343750
2727,-152.343750
2728,-152.343750
2729,-152.343750
2730,-152.343750
2731,-152.343750
2732,-152.343750
2733,-152.343750
2734,-152.343750
2735,-152.343750
2736,-156.250000
2737,-156.250000
2738,-156.250000
2739,-156.250000
2740,-156.250000
2741,-156.250000
2742,-156.250000
2743,-156.250000
2744,-156.250000
2745,-156.250000
2746,-156.250000
2747,-156.250000
2748,-160.156250
2749,-160.156250
2750,-160.156250
2751,-160.156250
2752,-160.156250
2753,-160.156250
2754,-160.156250
2755,-160.156250
2756,-160.156250
2757,-160.156250
2758,-160.156250
2759,-160.156250
2760,-160.156250
2761,-160.156250
2762,-160.156250
2763,-160.156250
2764,-160.156250
2765,-160.156250
2766,-160.156250
2767,-164.062500
2768,-164.062500
2769,-164.062500
2770,-164.062500
2771,-164.062500
2772,-164.062500
2773,-164.062500
2774,-164.062500
2775,-164.062500
2776,-164.062500
2777,-164.062500
2778,-164.062500
2779,-164.062500
2780,-164.062500
2781,-164.062500
2782,-164.062500
2783,-164.062500
2784,-164.062500
2785,-164.062500
2786,-164.062500
2787,-164.062500
2788,-164.062500
2789,-164.062500
2790,-164.062500
2791,-164.062500
2792,-164.062500
2793,-164.062500
2794,-164.062500
2795,-164.062500
2796,-164.062500
2797,-164.062500
2798,-164.062500
2799,-164.062500
2800,-164.062500
2801,-164.062500
2802,-164.062500
2803,-164.062500
2804,-164.062500
2805,-164.062500
2806,-164.062500
2807,-164.062500
2808,-164.062500
2809,-164.062500
2810,-164.062500
2811,-164.062500
2812,-164.062500
2813,-160.156250
2814,-164.062500
2815,-160.156250
2816,-160.156250
2817,-160.156250
2818,-160.156250
2819,-160.156250
2820,-160.156250
2821,-160.156250
2822,-160.156250
2823,-160.156250
2824,-160.156250
2825,-160.156250
2826,-160.156250
2827,-160.156250
2828,-160.156250
2829,-160.156250
2830,-160.156250
2831,-160.156250
2832,-156.250000
2833,-156.250000
2834,-156.250000
2835,-156.250000
2836,-156.250000
2837,-156.250000
2838,-156.250000
2839,-156.250000
2840,-156.250000
2841,-156.250000
2842,-156.250000
2843,-156.250000
2844,-156.250000
2845,-152.343750
2846,-152.343750
2847,-152.343750
2848,-152.343750
2849,-152.343750
2850,-152.343750
2851,-152.343750
2852,-152.343750
2853,-152.343750
2854,-148.437500
2855,-148.437500
2856,-148.437500
2857,-148.437500
2858,-148.437500
2859,-148.437500
2860,-148.437500
2861,-148.437500
2862,-148.437500
2863,-148.437500
2864,-144.531250
2865,-144.531250
2866,-144.531250
2867,-144.531250
2868,-144.531250
2869,-144.531250
2870,-144.531250
2871,-144.531250
2872,-144.531250
2873,-144.531250
2874,-140.625000
2875,-140.625000
2876,-140.625000
2877,-140.625000
2878,-140.625000
2879,-140.625000
2880,-136.718750
2881,-136.718750
2882,-136.718750
2883,-136.718750
2884,-136.718750
2885,-136.718750
2886,-136.718750
2887,-136.718750
2888,-132.812500
2889,-132.812500
2890,-132.812500
2891,-132.812500
2892,-132.812500
2893,-132.812500
2894,-128.906250
2895,-128.906250
2896,-128.906250
2897,-128.906250
2898,-128.906250
2899,-128.906250
2900,-128.906250
2901,-125.000000
2902,-125.000000
2903,-125.000000
2904,-125.000000
2905,-121.093750
2906,-121.093750
2907,-121.093750
2908,-121.093750
2909,-121.093750
2910,-121.093750
2911,-117.187500
2912,-117.187500
2913,-117.187500
2914,-117.187500
2915,-117.187500
2916,-113.281250
2917,-113.281250
2918,-113.281250
2919,-113.281250
2920,-113.281250
2921,-113.281250
2922,-109.375000
2923,-109.375000
2924,-109.375000
2925,-109.375000
2926,-109.375000
2927,-105.468750
2928,-105.468750
2929,-105.468750
2930,-105.468750
2931,-105.468750
2932,-105.468750
2933,-101.562500
2934,-101.562500
2935,-101.562500
2936,-101.562500
2937,-97.656250
2938,-97.656250
2939,-97.656250
2940,-97.656250
2941,-97.656250
2942,-93.750000
2943,-93.750000
2944,-93.750000
2945,-93.750000
2946,-93.750000
2947,-89.843750
2948,-89.843750
2949,-89.843750
2950,-85.937500
2951,-85.937500
2952,-85.937500
2953,-85.937500
2954,-85.937500
2955,-82.031250
2956,-82.031250
2957,-82.031250
2958,-82.031250
2959,-82.031250
2960,-78.125000
2961,-78.125000
2962,-78.125000
2963,-78.125000
2964,-78.125000
2965,-74.218750
2966,-74.218750
2967,-74.218750
2968,-74.218750
2969,-74.218750
2970,-70.312500
2971,-70.312500
2972,-70.312500
2973,-66.406250
2974,-66.406250
2975,-66.406250
2976,-66.406250
2977,-62.500000
2978,-62.500000
2979,-62.500000
2980,-62.500000
2981,-62.500000
2982,-58.593750
2983,-58.593750
2984,-58.593750
2985,-58.593750
2986,-58.593750
2987,-54.687500
2988,-54.687500
2989,-54.687500
2990,-54.687500
2991,-50.781250
2992,-50.781250
2993,-50.781250
2994,-50.781250
2995,-46.875000
2996,-46.875000
2997,-46.875000
2998,-46.875000
2999,-46.875000
3000,-42.968750
3001,-42.968750
3002,-42.968750
3003,-39.062500
3004,-39.062500
3005,-39.062500
3006,-39.062500
3007,-39.062500
3008,-35.156250
3009,-35.156250
3010,-35.156250
3011,-35.156250
3012,-31.250000
3013,-31.250000
3014,-31.250000
3015,-31.250000
3016,-27.343750
3017,-27.343750
3018,-27.343750
3019,-27.343750
3020,-27.343750
3021,-23.437500
3022,-23.437500
3023,-23.437500
3024,-23.437500
3025,-19.531250
3026,-19.531250
3027,-19.531250
3028,-19.531250
3029,-19.531250
3030,-15.625000
3031,-15.625000
3032,-15.625000
3033,-15.625000
3034,-11.718750
3035,-11.718750
3036,-11.718750
3037,-11.718750
3038,-7.812500
3039,-7.812500
3040,-7.812500
3041,-7.812500
3042,-7.812500
3043,-3.906250
3044,-3.906250
3045,-3.906250
3046,0.000000
3047,-3.906250
3048,0.000000
3049,0.000000
3050,0.000000
3051,3.906250
3052,3.906250
3053,3.906250
3054,3.906250
3055,7.812500
3056,7.812500
3057,7.812500
3058,7.812500
3059,7.812500
3060,11.718750
3061,11.718750
3062,11.718750
3063,15.625000
3064,15.625000
3065,11.718750
3066,15.625000
3067,15.625000
3068,15.625000
3069,19.531250
3070,19.531250
3071,19.531250
3072,19.531250
3073,23.437500
3074,23.437500
3075,23.437500
3076,23.437500
3077,27.343750
3078,27.343750
3079,27.343750
3080,27.343750
3081,27.343750
3082,31.250000
3083,31.250000
3084,31.250000
3085,31.250000
3086,31.250000
3087,35.156250
3088,35.156250
3089,35.156250
3090,35.156250
3091,35.156250
3092,39.062500
3093,39.062500
3094,39.062500
3095,39.062500
3096,39.062500
3097,42.968750
3098,42.968750
3099,42.968750
3100,42.968750
3101,46.875000
3102,46.875000
3103,46.875000
3104,46.875000
3105,46.875000
3106,50.781250
3107,50.781250
3108,50.781250
3109,50.781250
3110,50.781250
3111,50.781250
3112,54.687500
3113,54.687500
3114,54.687500
3115,54.687500
3116,54.687500
3117,58.593750
3118,58.593750
3119,58.593750
3120,58.593750
3121,58.593750
3122,62.500000
3123,62.500000
3124,62.500000
3125,62.500000
3126,62.500000
3127,62.500000
3128,66.406250
3129,66.406250
3130,66.406250
3131,66.406250
3132,66.406250
3133,70.312500
3134,70.312500
3135,70.312500
3136,70.312500
3137,70.312500
3138,70.312500
3139,74.218750
3140,74.218750
3141,74.218750
3142,74.218750
3143,74.218750
3144,74.218750
3145,74.218750
3146,78.125000
3147,78.125000
3148,78.125000
3149,78.125000
3150,78.125000
3151,78.125000
3152,82.031250
3153,82.031250
3154,82.031250
3155,82.031250
3156,82.031250
3157,82.031250
3158,82.031250
3159,85.937500
3160,85.937500
3161,85.937500
3162,85.937500
3163,85.937500
3164,85.937500
3165,85.937500
3166,85.937500
3167,89.843750
3168,89.843750
3169,89.843750
3170,89.843750
3171,89.843750
3172,89.843750
3173,93.750000
3174,93.750000
3175,93.750000
3176,93.750000
3177,93.750000
3178,93.750000
3179,93.750000
3180,93.750000
3181,93.750000
3182,97.656250
3183,97.656250
3184,97.656250
3185,97.656250
3186,97.656250
3187,97.656250
3188,97.656250
3189,97.656250
3190,101.562500
3191,101.562500
3192,101.562500
3193,101.562500
3194,101.562500
3195,101.562500
3196,101.562500
3197,101.562500
3198,101.562500
3199,105.468750
3200,105.468750
3201,105.468750
3202,105.468750
3203,105.468750
3204,105.468750
3205,105.468750
3206,105.468750
3207,105.468750
3208,109.375000
3209,109.375000
3210,109.375000
3211,109.375000
3212,109.375000
3213,109.375000
3214,109.375000
3215,109.375000
3216,109.375000
3217,109.375000
3218,109.375000
3219,109.375000
3220,109.375000
3221,113.281250
3222,113.281250
3223,113.281250
3224,113.281250
3225,113.281250
3226,113.281250
3227,113.281250
3228,113.281250
3229,113.281250
3230,113.281250
3231,113.281250
3232,113.281250
3233,117.187500
3234,113.281250
3235,117.187500
3236,117.187500
3237,113.281250
3238,117.187500
3239,117.187500
3240,117.187500
3241,117.187500
3242,117.187500
3243,117.187500
3244,117.187500
3245,117.187500
3246,117.187500
3247,117.187500
3248,117.187500
3249,117.187500
3250,117.187500
3251,117.187500
3252,117.187500
3253,117.187500
3254,121.093750
3255,121.093750
3256,121.093750
3257,121.093750
3258,121.093750
3259,121.093750
3260,121.093750
3261,121.093750
3262,121.093750
3263,121.093750
3264,121.093750
3265,121.093750
3266,121.093750
3267,121.093750
3268,121.093750
3269,121.093750
3270,121.093750
3271,121.093750
3272,121.093750
3273,121.093750
3274,121.093750
3275,121.093750
3276,121.093750
3277,121.093750
3278,121.093750
3279,121.093750
3280,121.093750
3281,121.093750
3282,121.093750
3283,121.093750
3284,121.093750
3285,121.093750
3286,121.093750
3287,121.093750
3288,121.093750
3289,121.093750
3290,121.093750
3291,121.093750
3292,121.093750
3293,121.093750
3294,121.093750
3295,121.093750
3296,121.093750
3297,121.093750
3298,121.093750
3299,121.093750
3300,121.093750
3301,121.093750
3302,121.093750
3303,121.093750
3304,121.093750
3305,121.093750
3306,121.093750
3307,121.093750
3308,121.093750
3309,121.093750
3310,121.093750
3311,121.093750
3312,121.093750
3313,121.093750
3314,121.093750
3315,121.093750
3316,121.093750
3317,121.093750
3318,121.093750
3319,121.093750
3320,117.187500
3321,121.093750
3322,121.093750
3323,121.093750
3324,117.187500
3325,121.093750
3326,117.187500
3327,117.187500
3328,117.187500
3329,117.187500
3330,117.187500
3331,117.187500
3332,117.187500
3333,117.187500
3334,117.187500
3335,117.187500
3336,117.187500
3337,121.093750
3338,117.187500
3339,117.187500
3340,117.187500
3341,117.187500
3342,117.187500
3343,117.187500
3344,113.281250
3345,113.281250
3346,113.281250
3347,113.281250
3348,113.281250
3349,113.281250
3350,113.281250
3351,113.281250
3352,113.281250
3353,113.281250
3354,113.281250
3355,113.281250
3356,113.281250
3357,113.281250
3358,109.375000
3359,109.375000
3360,109.375000
3361,109.375000
3362,109.375000
3363,109.375000
3364,109.375000
3365,109.375000
3366,109.375000
3367,109.375000
3368,105.468750
3369,105.468750
3370,105.468750
3371,105.468750
3372,105.468750
3373,105.468750
3374,105.468750
3375,105.468750
3376,105.468750
3377,105.468750
3378,105.468750
3379,101.562500
3380,101.562500
3381,101.562500
3382,101.562500
3383,101.562500
3384,101.562500
3385,101.562500
3386,101.562500
3387,101.562500
3388,97.656250
3389,97.656250
3390,97.656250
3391,97.656250
3392,97.656250
3393,97.656250
3394,97.656250
3395,97.656250
3396,93.750000
3397,93.750000
3398,93.750000
3399,93.750000
3400,93.750000
3401,93.750000
3402,93.750000
3403,93.750000
3404,93.750000
3405,89.843750
3406,89.843750
3407,89.843750
3408,89.843750
3409,89.843750
3410,89.843750
3411,85.937500
3412,85.937500
3413,85.937500
3414,85.937500
3415,85.937500
3416,85.937500
3417,85.937500
3418,82.031250
3419,82.031250
3420,82.031250
3421,82.031250
3422,82.031250
3423,82.031250
3424,82.031250
3425,78.125000
3426,78.125000
3427,78.125000
3428,78.125000
3429,78.125000
3430,78.125000
3431,74.218750
3432,74.218750
3433,74.218750
3434,74.218750
3435,74.218750
3436,74.218750
3437,70.312500
3438,70.312500
3439,70.312500
3440,70.312500
3441,70.312500
3442,66.406250
3443,66.406250
3444,66.406250
3445,66.406250
3446,66.406250
3447,62.500000
3448,62.500000
3449,62.500000
3450,62.500000
3451,62.500000
3452,62.500000
3453,62.500000
3454,58.593750
3455,58.593750
3456,58.593750
3457,58.593750
3458,58.593750
3459,58.593750
3460,54.687500
3461,54.687500
3462,54.687500
3463,54.687500
3464,50.781250
3465,50.781250
3466,50.781250
3467,50.781250
3468,50.781250
3469,46.875000
3470,46.875000
3471,46.875000
3472,46.875000
3473,46.875000
3474,42.968750
3475,42.968750
3476,42.968750
3477,42.968750
3478,42.968750
3479,39.062500
3480,39.062500
3481,39.062500
3482,39.062500
3483,39.062500
3484,35.156250
3485,35.156250
3486,35.156250
3487,35.156250
3488,31.250000
3489,31.250000
3490,31.250000
3491,31.250000
3492,31.250000
3493,31.250000
3494,27.343750
3495,27.343750
3496,27.343750
3497,27.343750
3498,23.437500
3499,23.437500
3500,23.437500
3501,23.437500
3502,19.531250
3503,19.531250
3504,19.531250
3505,19.531250
3506,19.531250
3507,15.625000
3508,15.625000
3509,15.625000
3510,15.625000
3511,15.625000
3512,11.718750
3513,11.718750
3514,11.718750
3515,11.718750
3516,7.812500
3517,7.812500
3518,7.812500
3519,7.812500
3520,3.906250
3521,3.906250
3522,3.906250
3523,3.906250
3524,3.906250
3525,0.000000
3526,0.000000
3527,0.000000
3528,-3.906250
3529,-3.906250
3530,-3.906250
3531,-3.906250
3532,-7.812500
3533,-7.812500
3534,-7.812500
3535,-7.812500
3536,-7.812500
3537,-11.718750
3538,-11.718750
3539,-11.718750
3540,-11.718750
3541,-15.625000
3542,-15.625000
3543,-15.625000
3544,-15.625000
3545,-19.531250
3546,-19.531250
3547,-19.531250
3548,-19.531250
3549,-23.437500
3550,-23.437500
3551,-23.437500
3552,-23.437500
3553,-23.437500
3554,-27.343750
3555,-27.343750
3556,-27.343750
3557,-31.250000
3558,-31.250000
3559,-31.250000
3560,-31.250000
3561,-35.156250
3562,-35.156250
3563,-35.156250
3564,-35.156250
3565,-35.156250
3566,-39.062500
3567,-39.062500
3568,-39.062500
3569,-39.062500
3570,-42.968750
3571,-42.968750
3572,-42.968750
3573,-42.968750
3574,-46.875000
3575,-46.875000
3576,-46.875000
3577,-46.875000
3578,-50.781250
3579,-50.781250
3580,-50.781250
3581,-50.781250
3582,-50.781250
3583,-54.687500
3584,-54.687500
3585,-54.687500
3586,-58.593750
3587,-58.593750
3588,-58.593750
3589,-58.593750
3590,-58.593750
3591,-62.500000
3592,-62.500000
3593,-62.500000
3594,-62.500000
3595,-66.406250
3596,-66.406250
3597,-66.406250
3598,-66.406250
3599,-66.406250
3600,-70.312500
3601,-70.312500
3602,-70.312500
3603,-70.312500
3604,-74.218750
3605,-74.218750
3606,-74.218750
3607,-74.218750
3608,-78.125000
3609,-78.125000
3610,-78.125000
3611,-78.125000
3612,-78.125000
3613,-82.031250
3614,-82.031250
3615,-82.031250
3616,-82.031250
3617,-85.937500
3618,-85.937500
3619,-85.937500
3620,-85.937500
3621,-85.937500
3622,-89.843750
3623,-89.843750
3624,-89.843750
3625,-89.843750
3626,-93.750000
3627,-93.750000
3628,-93.750000
3629,-93.750000
3630,-97.656250
3631,-97.656250
3632,-97.656250
3633,-97.656250
3634,-97.656250
3635,-97.656250
3636,-101.562500
3637,-101.562500
3638,-101.562500
3639,-101.562500
3640,-101.562500
3641,-105.468750
3642,-105.468750
3643,-105.468750
3644,-105.468750
3645,-109.375000
3646,-109.375000
3647,-109.375000
3648,-109.375000
3649,-109.375000
3650,-109.375000
3651,-113.281250
3652,-113.281250
3653,-113.281250
3654,-113.281250
3655,-113.281250
3656,-117.187500
3657,-117.187500
3658,-117.187500
3659,-117.187500
3660,-117.187500
3661,-117.187500
3662,-121.093750
3663,-121.093750
3664,-121.093750
3665,-121.093750
3666,-125.000000
3667,-125.000000
3668,-125.000000
3669,-125.000000
3670,-125.000000
3671,-125.000000
3672,-125.000000
3673,-128.906250
3674,-128.906250
3675,-128.906250
3676,-128.906250
3677,-128.906250
3678,-132.812500
3679,-132.812500
3680,-132.812500
3681,-132.812500
3682,-132.812500
3683,-132.812500
3684,-132.812500
3685,-136.718750
3686,-136.718750
3687,-136.718750
3688,-136.718750
3689,-136.718750
3690,-136.718750
3691,-140.625000
3692,-140.625000
3693,-140.625000
3694,-140.625000
3695,-140.625000
3696,-140.625000
3697,-140.625000
3698,-144.531250
3699,-144.531250
3700,-144.531250
3701,-144.531250
3702,-144.531250
3703,-144.531250
3704,-144.531250
3705,-148.437500
3706,-144.531250
3707,-148.437500
3708,-148.437500
3709,-144.531250
3710,-148.437500
3711,-148.437500
3712,-148.437500
3713,-148.437500
3714,-148.437500
3715,-152.343750
3716,-152.343750
3717,-152.343750
3718,-152.343750
3719,-152.343750
3720,-152.343750
3721,-152.343750
3722,-152.343750
3723,-152.343750
3724,-152.343750
3725,-156.250000
3726,-156.250000
3727,-156.250000
3728,-156.250000
3729,-156.250000
3730,-156.250000
3731,-156.250000
3732,-156.250000
3733,-156.250000
3734,-156.250000
3735,-156.250000
3736,-156.250000
3737,-160.156250
3738,-160.156250
3739,-160.156250
3740,-160.156250
3741,-160.156250
3742,-160.156250
3743,-160.156250
3744,-160.156250
3745,-160.156250
3746,-160.156250
3747,-160.156250
3748,-160.156250
3749,-160.156250
3750,-160.156250
3751,-160.156250
3752,-160.156250
3753,-160.156250
3754,-164.062500
3755,-160.156250
3756,-160.156250
3757,-164.062500
3758,-164.062500
3759,-164.062500
3760,-164.062500
3761,-164.062500
3762,-164.062500
3763,-164.062500
3764,-164.062500
3765,-164.062500
3766,-164.062500
3767,-164.062500
3768,-164.062500
3769,-164.062500
3770,-164.062500
3771,-164.062500
3772,-164.062500
3773,-164.062500
3774,-164.062500
3775,-164.062500
3776,-164.062500
3777,-164.062500
3778,-164.062500
3779,-164.062500
3780,-164.062500
3781,-164.062500
3782,-164.062500
3783,-164.062500
3784,-164.062500
3785,-164.062500
3786,-164.062500
3787,-164.062500
3788,-164.062500
3789,-164.062500
3790,-164.062500
3791,-164.062500
3792,-164.062500
3793,-164.062500
3794,-164.062500
3795,-164.062500
3796,-164.062500
3797,-164.062500
3798,-164.062500
3799,-164.062500
3800,-164.062500
3801,-164.062500
3802,-164.062500
3803,-164.062500
3804,-164.062500
3805,-160.156250
3806,-164.062500
3807,-160.156250
3808,-160.156250
3809,-164.062500
3810,-160.156250
3811,-160.156250
3812,-160.156250
3813,-160.156250
3814,-160.156250
3815,-160.156250
3816,-160.156250
3817,-160.156250
3818,-160.156250
3819,-160.156250
3820,-160.156250
3821,-160.156250
3822,-160.156250
3823,-156.250000
3824,-156.250000
3825,-156.250000
3826,-156.250000
3827,-156.250000
3828,-156.250000
3829,-156.250000
3830,-156.250000
3831,-156.250000
3832,-156.250000
3833,-156.250000
3834,-156.250000
3835,-156.250000
3836,-152.343750
3837,-152.343750
3838,-152.343750
3839,-152.343750
3840,-152.343750
3841,-152.343750
3842,-152.343750
3843,-152.343750
3844,-152.343750
3845,-152.343750
3846,-148.437500
3847,-148.437500
3848,-148.437500
3849,-148.437500
3850,-148.437500
3851,-148.437500
3852,-148.437500
3853,-148.437500
3854,-148.437500
3855,-144.531250
3856,-144.531250
3857,-144.531250
3858,-144.531250
3859,-144.531250
3860,-144.531250
3861,-144.531250
3862,-144.531250
3863,-140.625000
3864,-144.531250
3865,-140.625000
3866,-140.625000
3867,-140.625000
3868,-140.625000
3869,-140.625000
3870,-140.625000
3871,-136.718750
3872,-136.718750
3873,-136.718750
3874,-136.718750
3875,-136.718750
3876,-136.718750
3877,-136.718750
3878,-132.812500
3879,-132.812500
3880,-132.812500
3881,-132.812500
3882,-132.812500
3883,-132.812500
3884,-128.906250
3885,-128.906250
3886,-128.906250
3887,-128.906250
3888,-128.906250
3889,-125.000000
3890,-125.000000
3891,-125.000000
3892,-125.000000
3893,-125.000000
3894,-125.000000
3895,-125.000000
3896,-121.093750
3897,-121.093750
3898,-121.093750
3899,-121.093750
3900,-121.093750
3901,-121.093750
3902,-121.093750
3903,-117.187500
3904,-117.187500
3905,-117.187500
3906,-117.187500
3907,-113.281250
3908,-113.281250
3909,-113.281250
3910,-113.281250
3911,-113.281250
3912,-113.281250
3913,-109.375000
3914,-109.375000
3915,-109.375000
3916,-109.375000
3917,-105.468750
3918,-105.468750
3919,-105.468750
3920,-105.468750
3921,-105.468750
3922,-105.468750
3923,-101.562500
3924,-101.562500
3925,-101.562500
3926,-101.562500
3927,-101.562500
3928,-97.656250
3929,-97.656250
3930,-97.656250
3931,-97.656250
3932,-97.656250
3933,-93.750000
3934,-93.750000
3935,-93.750000
3936,-93.750000
3937,-93.750000
3938,-89.843750
3939,-89.843750
3940,-89.843750
3941,-85.937500
3942,-85.937500
3943,-85.937500
3944,-85.937500
3945,-85.937500
3946,-82.031250
3947,-82.031250
3948,-82.031250
3949,-82.031250
3950,-82.031250
3951,-78.125000
3952,-78.125000
3953,-78.125000
3954,-78.125000
3955,-74.218750
3956,-74.218750
3957,-74.218750
3958,-74.218750
3959,-70.312500
3960,-70.312500
3961,-70.312500
3962,-70.312500
3963,-70.312500
3964,-70.312500
3965,-66.406250
3966,-66.406250
3967,-66.406250
3968,-66.406250
3969,-62.500000
3970,-62.500000
3971,-62.500000
3972,-62.500000
3973,-58.593750
3974,-58.593750
3975,-58.593750
3976,-58.593750
3977,-54.687500
3978,-54.687500
3979,-54.687500
3980,-54.687500
3981,-50.781250
3982,-50.781250
3983,-50.781250
3984,-50.781250
3985,-50.781250
3986,-46.875000
3987,-46.875000
3988,-46.875000
3989,-42.968750
3990,-42.968750
3991,-42.968750
3992,-42.968750
3993,-42.968750
3994,-39.062500
3995,-39.062500
3996,-39.062500
3997,-39.062500
3998,-35.156250
3999,-35.156250
4000,-35.156250
4001,-35.156250
4002,-35.156250
4003,-31.250000
4004,-31.250000
4005,-31.250000
4006,-27.343750
4007,-27.343750
4008,-27.343750
4009,-27.343750
4010,-27.343750
4011,-23.437500
4012,-23.437500
4013,-23.437500
4014,-23.437500
4015,-19.531250
4016,-19.531250
4017,-19.531250
4018,-19.531250
4019,-19.531250
4020,-15.625000
4021,-15.625000
4022,-15.625000
4023,-11.718750
4024,-11.718750
4025,-11.718750
4026,-11.718750
4027,-7.812500
4028,-7.812500
4029,-7.812500
4030,-7.812500
4031,-7.812500
4032,-3.906250
4033,-3.906250
4034,-3.906250
4035,-3.906250
4036,0.000000
4037,0.000000
4038,0.000000
4039,0.000000
4040,0.000000
4041,3.906250
4042,3.906250
4043,3.906250
4044,3.906250
4045,7.812500
4046,7.812500
4047,7.812500
4048,7.812500
4049,11.718750
4050,11.718750
4051,11.718750
4052,11.718750
4053,15.625000
4054,15.625000
4055,15.625000
4056,15.625000
4057,15.625000
4058,15.625000
4059,19.531250
4060,19.531250
4061,19.531250
4062,19.531250
4063,23.437500
4064,23.437500
4065,23.437500
4066,23.437500
4067,27.343750
4068,27.343750
4069,27.343750
4070,27.343750
4071,27.343750
4072,31.250000
4073,31.250000
4074,31.250000
4075,31.250000
4076,31.250000
4077,35.156250
4078,35.156250
4079,35.156250
4080,35.156250
4081,39.062500
4082,39.062500
4083,39.062500
4084,39.062500
4085,39.062500
4086,42.968750
4087,42.968750
4088,42.968750
4089,42.968750
4090,42.968750
4091,46.875000
4092,46.875000
4093,46.875000
4094,46.875000
4095,46.875000
4096,50.781250
4097,50.781250
4098,50.781250
4099,50.781250
4100,50.781250
4101,54.687500
4102,54.687500
4103,54.687500
4104,54.687500
4105,54.687500
4106,54.687500
4107,58.593750
4108,58.593750
4109,58.593750
4110,58.593750
4111,62.500000
4112,62.500000
4113,62.500000
4114,62.500000
4115,62.500000
4116,62.500000
4117,62.500000
4118,66.406250
4119,66.406250
4120,66.406250
4121,66.406250
4122,66.406250
4123,70.312500
4124,66.406250
4125,70.312500
4126,70.312500
4127,70.312500
4128,70.312500
4129,74.218750
4130,74.218750
4131,74.218750
4132,74.218750
4133,74.218750
4134,74.218750
4135,74.218750
4136,78.125000
4137,78.125000
4138,78.125000
4139,78.125000
4140,78.125000
4141,82.031250
4142,82.031250
4143,82.031250
4144,82.031250
4145,82.031250
4146,82.031250
4147,82.031250
4148,85.937500
4149,85.937500
4150,85.937500
4151,85.937500
4152,85.937500
4153,85.937500
4154,85.937500
4155,85.937500
4156,89.843750
4157,89.843750
4158,89.843750
4159,89.843750
4160,89.843750
4161,89.843750
4162,89.843750
4163,93.750000
4164,93.750000
4165,93.750000
4166,93.750000
4167,93.750000
4168,93.750000
4169,93.750000
4170,97.656250
4171,97.656250
4172,97.656250
4173,97.656250
4174,97.656250
4175,97.656250
4176,97.656250
4177,97.656250
4178,101.562500
4179,101.562500
4180,97.656250
4181,101.562500
4182,101.562500
4183,101.562500
4184,101.562500
4185,101.562500
4186,101.562500
4187,101.562500
4188,105.468750
4189,105.468750
4190,105.468750
4191,105.468750
4192,105.468750
4193,105.468750
4194,105.468750
4195,105.468750
4196,105.468750
4197,105.468750
4198,109.375000
4199,109.375000
4200,109.375000
4201,109.375000
4202,109.375000
4203,109.375000
4204,109.375000
4205,109.375000
4206,109.375000
4207,109.375000
4208,109.375000
4209,113.281250
4210,109.375000
4211,113.281250
4212,113.281250
4213,113.281250
4214,113.281250
4215,113.281250
4216,113.281250
4217,113.281250
4218,113.281250
4219,113.281250
4220,113.281250
4221,113.281250
4222,113.281250
4223,113.281250
4224,113.281250
4225,113.281250
4226,117.187500
4227,117.187500
4228,113.281250
4229,117.187500
4230,117.187500
4231,117.187500
4232,117.187500
4233,117.187500
4234,117.187500
4235,117.187500
4236,117.187500
4237,117.187500
4238,117.187500
4239,117.187500
4240,117.187500
4241,117.187500
4242,117.187500
4243,117.187500
4244,117.187500
4245,117.187500
4246,121.093750
4247,121.093750
4248,121.093750
4249,121.093750
4250,121.093750
4251,121.093750
4252,121.093750
4253,121.093750
4254,121.093750
4255,121.093750
4256,121.093750
4257,121.093750
4258,121.093750
4259,121.093750
4260,121.093750
4261,121.093750
4262,121.093750
4263,121.093750
4264,121.093750
4265,121.093750
4266,121.093750
4267,121.093750
4268,121.093750
4269,121.093750
4270,121.093750
4271,121.093750
4272,121.093750
4273,121.093750
4274,121.093750
4275,121.093750
4276,121.093750
4277,121.093750
4278,121.093750
4279,121.093750
4280,121.093750
4281,121.093750
4282,121.093750
4283,121.093750
4284,121.093750
4285,121.093750
4286,121.093750
4287,121.093750
4288,121.093750
4289,121.093750
4290,121.093750
4291,121.093750
4292,121.093750
4293,121.093750
4294,121.093750
4295,121.093750
4296,121.093750
4297,121.093750
4298,121.093750
4299,121.093750
4300,121.093750
4301,121.093750
4302,121.093750
4303,121.093750
4304,121.093750
4305,121.093750
4306,121.093750
4307,121.093750
4308,121.093750
4309,121.093750
4310,121.093750
4311,117.187500
4312,121.093750
4313,121.093750
4314,117.187500
4315,121.093750
4316,117.187500
4317,117.187500
4318,117.187500
4319,117.187500
4320,117.187500
4321,117.187500
4322,117.187500
4323,117.187500
4324,117.187500
4325,117.187500
4326,117.187500
4327,117.187500
4328,117.187500
4329,117.187500
4330,117.187500
4331,117.187500
4332,113.281250
4333,113.281250
4334,113.281250
4335,113.281250
4336,113.281250
4337,113.281250
4338,113.281250
4339,113.281250
4340,113.281250
4341,113.281250
4342,113.281250
4343,113.281250
4344,113.281250
4345,109.375000
4346,109.375000
4347,109.375000
4348,109.375000
4349,109.375000
4350,109.375000
4351,109.375000
4352,109.375000
4353,109.375000
4354,109.375000
4355,109.375000
4356,109.375000
4357,109.375000
4358,105.468750
4359,105.468750
4360,105.468750
4361,105.468750
4362,105.468750
4363,105.468750
4364,105.468750
4365,105.468750
4366,105.468750
4367,105.468750
4368,105.468750
4369,101.562500
4370,101.562500
4371,101.562500
4372,101.562500
4373,101.562500
4374,101.562500
4375,101.562500
4376,101.562500
4377,101.562500
4378,97.656250
4379,97.656250
4380,97.656250
4381,97.656250
4382,97.656250
4383,97.656250
4384,97.656250
4385,97.656250
4386,93.750000
4387,93.750000
4388,93.750000
4389,93.750000
4390,93.750000
4391,93.750000
4392,93.750000
4393,93.750000
4394,89.843750
4395,89.843750
4396,89.843750
4397,89.843750
4398,89.843750
4399,89.843750
4400,89.843750
4401,89.843750
4402,85.937500
4403,85.937500
4404,85.937500
4405,85.937500
4406,85.937500
4407,85.937500
4408,82.031250
4409,82.031250
4410,82.031250
4411,82.031250
4412,82.031250
4413,82.031250
4414,82.031250
4415,82.031250
4416,78.125000
4417,78.125000
4418,78.125000
4419,78.125000
4420,78.125000
4421,74.218750
4422,74.218750
4423,74.218750
4424,74.218750
4425,74.218750
4426,74.218750
4427,74.218750
4428,70.312500
4429,70.312500
4430,70.312500
4431,70.312500
4432,66.406250
4433,66.406250
4434,66.406250
4435,66.406250
4436,66.406250
4437,66.406250
4438,66.406250
4439,62.500000
4440,62.500000
4441,62.500000
4442,62.500000
4443,62.500000
4444,58.593750
4445,58.593750
4446,58.593750
4447,58.593750
4448,58.593750
4449,54.687500
4450,54.687500
4451,54.687500
4452,54.687500
4453,54.687500
4454,54.687500
4455,50.781250
4456,50.781250
4457,50.781250
4458,50.781250
4459,50.781250
4460,46.875000
4461,46.875000
4462,46.875000
4463,46.875000
4464,42.968750
4465,42.968750
4466,42.968750
4467,42.968750
4468,42.968750
4469,39.062500
4470,39.062500
4471,39.062500
4472,39.062500
4473,35.156250
4474,35.156250
4475,35.156250
4476,35.156250
4477,35.156250
4478,31.250000
4479,31.250000
4480,31.250000
4481,31.250000
4482,31.250000
4483,27.343750
4484,27.343750
4485,27.343750
4486,27.343750
4487,23.437500
4488,23.437500
4489,23.437500
4490,23.437500
4491,23.437500
4492,19.531250
4493,19.531250
4494,19.531250
4495,19.531250
4496,15.625000
4497,15.625000
4498,15.625000
4499,15.625000
4500,15.625000
4501,11.718750
4502,11.718750
4503,11.718750
4504,11.718750
4505,7.812500
4506,7.812500
4507,7.812500
4508,7.812500
4509,7.812500
4510,3.906250
4511,3.906250
4512,3.906250
4513,3.906250
4514,0.000000
4515,3.906250
4516,0.000000
4517,0.000000
4518,-3.906250
4519,-3.906250
4520,-3.906250
4521,-3.906250
4522,-3.906250
4523,-7.812500
4524,-7.812500
4525,-7.812500
4526,-7.812500
4527,-11.718750
4528,-11.718750
4529,-11.718750
4530,-11.718750
4531,-15.625000
4532,-15.625000
4533,-15.625000
4534,-15.625000
4535,-15.625000
4536,-19.531250
4537,-19.531250
4538,-19.531250
4539,-23.437500
4540,-23.437500
4541,-23.437500
4542,-23.437500
4543,-27.343750
4544,-27.343750
4545,-27.343750
4546,-27.343750
4547,-31.250000
4548,-31.250000
4549,-31.250000
4550,-31.250000
4551,-35.156250
4552,-35.156250
4553,-35.156250
4554,-35.156250
4555,-35.156250
4556,-39.062500
4557,-39.062500
4558,-39.062500
4559,-39.062500
4560,-42.968750
4561,-42.968750
4562,-42.968750
4563,-42.968750
4564,-46.875000
4565,-46.875000
4566,-46.875000
4567,-46.875000
4568,-50.781250
4569,-50.781250
4570,-50.781250
4571,-50.781250
4572,-50.781250
4573,-54.687500
4574,-54.687500
4575,-54.687500
4576,-54.687500
4577,-58.593750
4578,-58.593750
4579,-62.500000
4580,-62.500000
4581,-62.500000
4582,-62.500000
4583,-62.500000
4584,-62.500000
4585,-66.406250
4586,-66.406250
4587,-66.406250
4588,-66.406250
4589,-70.312500
4590,-70.312500
4591,-70.312500
4592,-70.312500
4593,-74.218750
4594,-74.218750
4595,-74.218750
4596,-78.125000
4597,-78.125000
4598,-78.125000
4599,-78.125000
4600,-78.125000
4601,-78.125000
4602,-82.031250
4603,-82.031250
4604,-82.031250
4605,-85.937500
4606,-82.031250
4607,-85.937500
4608,-85.937500
4609,-85.937500
4610,-85.937500
4611,-85.937500
4612,-89.843750
4613,-89.843750
4614,-89.843750
4615,-89.843750
4616,-93.750000
4617,-93.750000
4618,-93.750000
4619,-93.750000
4620,-93.750000
4621,-97.656250
4622,-97.656250
4623,-97.656250
4624,-97.656250
4625,-97.656250
4626,-101.562500
4627,-101.562500
4628,-101.562500
4629,-101.562500
4630,-101.562500
4631,-105.468750
4632,-105.468750
4633,-105.468750
4634,-105.468750
4635,-105.468750
4636,-109.375000
4637,-109.375000
4638,-109.375000
4639,-109.375000
4640,-113.281250
4641,-109.375000
4642,-113.281250
4643,-113.281250
4644,-113.281250
4645,-113.281250
4646,-117.187500
4647,-117.187500
4648,-117.187500
4649,-117.187500
4650,-117.187500
4651,-117.187500
4652,-121.093750
4653,-121.093750
4654,-121.093750
4655,-121.093750
4656,-121.093750
4657,-121.093750
4658,-125.000000
4659,-125.000000
4660,-125.000000
4661,-125.000000
4662,-125.000000
4663,-128.906250
4664,-128.906250
4665,-128.906250
4666,-128.906250
4667,-128.906250
4668,-132.812500
4669,-132.812500
4670,-132.812500
4671,-132.812500
4672,-132.812500
4673,-132.812500
4674,-132.812500
4675,-132.812500
4676,-132.812500
4677,-136.718750
4678,-136.718750
4679,-136.718750
4680,-136.718750
4681,-136.718750
4682,-136.718750
4683,-140.625000
4684,-140.625000
4685,-140.625000
4686,-140.625000
4687,-140.625000
4688,-140.625000
4689,-144.531250
4690,-144.531250
4691,-144.531250
4692,-144.531250
4693,-144.531250
4694,-144.531250
4695,-144.531250
4696,-148.437500
4697,-144.531250
4698,-148.437500
4699,-148.437500
4700,-148.437500
4701,-148.437500
4702,-148.437500
4703,-148.437500
4704,-148.437500
4705,-152.343750
4706,-152.343750
4707,-152.343750
4708,-152.343750
4709,-152.343750
4710,-152.343750
4711,-152.343750
4712,-152.343750
4713,-152.343750
4714,-152.343750
4715,-152.343750
4716,-156.250000
4717,-156.250000
4718,-156.250000
4719,-156.250000
4720,-156.250000
4721,-156.250000
4722,-156.250000
4723,-156.250000
4724,-156.250000
4725,-156.250000
4726,-156.250000
4727,-160.156250
4728,-160.156250
4729,-160.156250
4730,-160.156250
4731,-160.156250
4732,-160.156250
4733,-160.156250
4734,-160.156250
4735,-160.156250
4736,-160.156250
4737,-160.156250
4738,-160.156250
4739,-160.156250
4740,-160.156250
4741,-160.156250
4742,-160.156250
4743,-160.156250
4744,-164.062500
4745,-164.062500
4746,-164.062500
4747,-164.062500
4748,-164.062500
4749,-160.156250
4750,-164.062500
4751,-164.062500
4752,-164.062500
4753,-164.062500
4754,-164.062500
4755,-164.062500
4756,-164.062500
4757,-164.062500
4758,-164.062500
4759,-164.062500
4760,-164.062500
4761,-164.062500
4762,-164.062500
4763,-164.062500
4764,-164.062500
4765,-164.062500
4766,-164.062500
4767,-164.062500
4768,-164.062500
4769,-164.062500
4770,-164.062500
4771,-164.062500
4772,-164.062500
4773,-164.062500
4774,-164.062500
4775,-164.062500
4776,-164.062500
4777,-164.062500
4778,-164.062500
4779,-164.062500
4780,-164.062500
4781,-164.062500
4782,-164.062500
4783,-164.062500
4784,-164.062500
4785,-164.062500
4786,-164.062500
4787,-164.062500
4788,-164.062500
4789,-164.062500
4790,-164.062500
4791,-164.062500
4792,-164.062500
4793,-164.062500
4794,-164.062500
4795,-160.156250
4796,-164.062500
4797,-160.156250
4798,-160.156250
4799,-160.156250
4800,-164.062500
4801,-160.156250
4802,-160.156250
4803,-164.062500
4804,-160.156250
4805,-160.156250
4806,-160.156250
4807,-160.156250
4808,-160.156250
4809,-160.156250
4810,-160.156250
4811,-156.250000
4812,-160.156250
4813,-156.250000
4814,-160.156250
4815,-156.250000
4816,-160.156250
4817,-156.250000
4818,-156.250000
4819,-156.250000
4820,-156.250000
4821,-156.250000
4822,-156.250000
4823,-156.250000
4824,-156.250000
4825,-156.250000
4826,-152.343750
4827,-152.343750
4828,-152.343750
4829,-152.343750
4830,-152.343750
4831,-152.343750
4832,-152.343750
4833,-152.343750
4834,-152.343750
4835,-152.343750
4836,-152.343750
4837,-152.343750
4838,-152.343750
4839,-148.437500
4840,-148.437500
4841,-148.437500
4842,-148.437500
4843,-148.437500
4844,-148.437500
4845,-148.437500
4846,-144.531250
4847,-144.531250
4848,-144.531250
4849,-144.531250
4850,-144.531250
4851,-144.531250
4852,-144.531250
4853,-140.625000
4854,-140.625000
4855,-140.625000
4856,-140.625000
4857,-140.625000
4858,-140.625000
4859,-140.625000
4860,-136.718750
4861,-136.718750
4862,-136.718750
4863,-140.625000
4864,-136.718750
4865,-136.718750
4866,-136.718750
4867,-132.812500
4868,-132.812500
4869,-132.812500
4870,-128.906250
4871,-132.812500
4872,-132.812500
4873,-132.812500
4874,-128.906250
4875,-128.906250
4876,-128.906250
4877,-128.906250
4878,-128.906250
4879,-125.000000
4880,-125.000000
4881,-125.000000
4882,-125.000000
4883,-128.906250
4884,-125.000000
4885,-125.000000
4886,-121.093750
4887,-121.093750
4888,-121.093750
4889,-121.093750
4890,-121.093750
4891,-117.187500
4892,-117.187500
4893,-117.187500
4894,-117.187500
4895,-117.187500
4896,-117.187500
4897,-113.281250
4898,-113.281250
4899,-113.281250
4900,-113.281250
4901,-109.375000
4902,-109.375000
4903,-109.375000
4904,-109.375000
4905,-109.375000
4906,-109.375000
4907,-105.468750
4908,-105.468750
4909,-105.468750
4910,-105.468750
4911,-105.468750
4912,-105.468750
4913,-101.562500
4914,-101.562500
4915,-101.562500
4916,-101.562500
4917,-97.656250
4918,-97.656250
4919,-97.656250
4920,-97.656250
4921,-97.656250
4922,-93.750000
4923,-93.750000
4924,-93.750000
4925,-93.750000
4926,-89.843750
4927,-89.843750
4928,-89.843750
4929,-89.843750
4930,-89.843750
4931,-89.843750
4932,-85.937500
4933,-85.937500
4934,-85.937500
4935,-85.937500
4936,-82.031250
4937,-82.031250
4938,-82.031250
4939,-82.031250
4940,-78.125000
4941,-78.125000
4942,-78.125000
4943,-78.125000
4944,-78.125000
4945,-74.218750
4946,-74.218750
4947,-74.218750
4948,-74.218750
4949,-70.312500
4950,-70.312500
4951,-70.312500
4952,-70.312500
4953,-70.312500
4954,-66.406250
4955,-66.406250
4956,-66.406250
4957,-66.406250
4958,-62.500000
4959,-62.500000
4960,-62.500000
4961,-62.500000
4962,-58.593750
4963,-58.593750
4964,-58.593750
4965,-58.593750
4966,-58.593750
4967,-54.687500
4968,-54.687500
4969,-54.687500
4970,-54.687500
4971,-50.781250
4972,-50.781250
4973,-50.781250
4974,-50.781250
4975,-50.781250
4976,-46.875000
4977,-46.875000
4978,-46.875000
4979,-42.968750
4980,-42.968750
4981,-42.968750
4982,-42.968750
4983,-42.968750
4984,-39.062500
4985,-39.062500
4986,-39.062500
4987,-39.062500
4988,-35.156250
4989,-35.156250
4990,-35.156250
4991,-35.156250
4992,-35.156250
4993,-31.250000
4994,-31.250000
4995,-31.250000
4996,-31.250000
4997,-27.343750
4998,-27.343750
4999,-27.343750
5000,-23.437500
5001,-23.437500
5002,-23.437500
5003,-23.437500
5004,-23.437500
5005,-19.531250
5006,-19.531250
5007,-19.531250
5008,-19.531250
5009,-15.625000
5010,-15.625000
5011,-15.625000
5012,-15.625000
5013,-11.718750
5014,-11.718750
5015,-11.718750
5016,-11.718750
5017,-7.812500
5018,-7.812500
5019,-7.812500
5020,-7.812500
5021,-3.906250
5022,-3.906250
5023,-3.906250
5024,-3.906250
5025,-3.906250
5026,-3.906250
5027,0.000000
5028,0.000000
5029,0.000000
5030,3.906250
5031,3.906250
5032,3.906250
5033,3.906250
5034,3.906250
5035,7.812500
5036,7.812500
5037,7.812500
5038,7.812500
5039,11.718750
5040,11.718750
5041,11.718750
5042,11.718750
5043,11.718750
5044,15.625000
5045,15.625000
5046,15.625000
5047,19.531250
5048,19.531250
5049,19.531250
5050,19.531250
5051,19.531250
5052,19.531250
5053,19.531250
5054,23.437500
5055,23.437500
5056,23.437500
5057,27.343750
5058,27.343750
5059,27.343750
5060,27.343750
5061,27.343750
5062,31.250000
5063,31.250000
5064,31.250000
5065,31.250000
5066,31.250000
5067,35.156250
5068,35.156250
5069,35.156250
5070,35.156250
5071,39.062500
5072,39.062500
5073,39.062500
5074,39.062500
5075,39.062500
5076,39.062500
5077,42.968750
5078,42.968750
5079,42.968750
5080,42.968750
5081,42.968750
5082,46.875000
5083,46.875000
5084,46.875000
5085,46.875000
5086,46.875000
5087,50.781250
5088,50.781250
5089,50.781250
5090,50.781250
5091,50.781250
5092,54.687500
5093,54.687500
5094,54.687500
5095,54.687500
5096,54.687500
5097,58.593750
5098,58.593750
5099,58.593750
5100,58.593750
5101,58.593750
5102,58.593750
5103,62.500000
5104,62.500000
5105,62.500000
5106,62.500000
5107,66.406250
5108,66.406250
5109,66.406250
5110,66.406250
5111,66.406250
5112,66.406250
5113,66.406250
5114,70.312500
5115,70.312500
5116,70.312500
5117,70.312500
5118,70.312500
5119,74.218750
5120,70.312500
5121,74.218750
5122,74.218750
5123,74.218750
5124,74.218750
5125,78.125000
5126,74.218750
5127,78.125000
5128,78.125000
5129,78.125000
5130,78.125000
5131,78.125000
5132,78.125000
5133,82.031250
5134,82.031250
5135,82.031250
5136,82.031250
5137,82.031250
5138,82.031250
5139,85.937500
5140,85.937500
5141,85.937500
5142,85.937500
5143,85.937500
5144,85.937500
5145,85.937500
5146,89.843750
5147,89.843750
5148,89.843750
5149,89.843750
5150,89.843750
5151,89.843750
5152,89.843750
5153,89.843750
5154,93.750000
5155,93.750000
5156,93.750000
5157,93.750000
5158,93.750000
5159,93.750000
5160,97.656250
5161,97.656250
5162,97.656250
5163,97.656250
5164,97.656250
5165,97.656250
5166,97.656250
5167,97.656250
5168,97.656250
5169,101.562500
5170,101.562500
5171,101.562500
5172,101.562500
5173,101.562500
5174,101.562500
5175,101.562500
5176,101.562500
5177,101.562500
5178,101.562500
5179,105.468750
5180,105.468750
5181,105.468750
5182,105.468750
5183,105.468750
5184,105.468750
5185,105.468750
5186,105.468750
5187,105.468750
5188,105.468750
5189,109.375000
5190,109.375000
5191,109.375000
5192,109.375000
5193,109.375000
5194,109.375000
5195,109.375000
5196,109.375000
5197,109.375000
5198,109.375000
5199,113.281250
5200,109.375000
5201,113.281250
5202,113.281250
5203,113.281250
5204,113.281250
5205,113.281250
5206,113.281250
5207,113.281250
5208,113.281250
5209,113.281250
5210,113.281250
5211,113.281250
5212,113.281250
5213,113.281250
5214,113.281250
5215,113.281250
5216,113.281250
5217,117.187500
5218,117.187500
5219,117.187500
5220,117.187500
5221,117.187500
5222,117.187500
5223,117.187500
5224,117.187500
5225,117.187500
5226,117.187500
5227,117.187500
5228,117.187500
5229,117.187500
5230,117.187500
5231,117.187500
5232,117.187500
5233,117.187500
5234,117.187500
5235,117.187500
5236,117.187500
5237,121.093750
5238,121.093750
5239,121.093750
5240,121.093750
5241,121.093750
5242,121.093750
5243,121.093750
5244,121.093750
5245,121.093750
5246,121.093750
5247,121.093750
5248,121.093750
5249,121.093750
5250,121.093750
5251,121.093750
5252,121.093750
5253,121.093750
5254,121.093750
5255,121.093750
5256,121.093750
5257,121.093750
5258,121.093750
5259,121.093750
5260,121.093750
5261,121.093750
5262,121.093750
5263,121.093750
5264,121.093750
5265,121.093750
5266,121.093750
5267,121.093750
5268,121.093750
5269,121.093750
5270,121.093750
5271,121.093750
5272,121.093750
5273,121.093750
5274,121.093750
5275,121.093750
5276,121.093750
5277,121.093750
5278,121.093750
5279,121.093750
5280,121.093750
5281,121.093750
5282,121.093750
5283,121.093750
5284,121.093750
5285,121.093750
5286,121.093750
5287,121.093750
5288,121.093750
5289,121.093750
5290,121.093750
5291,121.093750
5292,121.093750
5293,121.093750
5294,121.093750
5295,121.093750
5296,121.093750
5297,121.093750
5298,121.093750
5299,121.093750
5300,121.093750
5301,121.093750
5302,121.093750
5303,117.187500
5304,117.187500
5305,117.187500
5306,117.187500
5307,117.187500
5308,117.187500
5309,117.187500
5310,117.187500
5311,117.187500
5312,117.187500
5313,117.187500
5314,117.187500
5315,117.187500
5316,117.187500
5317,117.187500
5318,117.187500
5319,117.187500
5320,117.187500
5321,117.187500
5322,113.281250
5323,113.281250
5324,113.281250
5325,113.281250
5326,113.281250
5327,113.281250
5328,113.281250
5329,113.281250
5330,113.281250
5331,113.281250
5332,113.281250
5333,113.281250
5334,113.281250
5335,109.375000
5336,109.375000
5337,113.281250
5338,109.375000
5339,109.375000
5340,109.375000
5341,109.375000
5342,109.375000
5343,109.375000
5344,109.375000
5345,109.375000
5346,105.468750
5347,109.375000
5348,105.468750
5349,105.468750
5350,105.468750
5351,105.468750
5352,105.468750
5353,105.468750
5354,105.468750
5355,105.468750
5356,105.468750
5357,105.468750
5358,101.562500
5359,101.562500
5360,101.562500
5361,101.562500
5362,101.562500
5363,101.562500
5364,101.562500
5365,101.562500
5366,101.562500
5367,97.656250
5368,97.656250
5369,97.656250
5370,97.656250
5371,97.656250
5372,97.656250
5373,97.656250
5374,93.750000
5375,93.750000
5376,93.750000
5377,93.750000
5378,93.750000
5379,93.750000
5380,93.750000
5381,93.750000
5382,89.843750
5383,93.750000
5384,89.843750
5385,89.843750
5386,89.843750
5387,89.843750
5388,89.843750
5389,89.843750
5390,89.843750
5391,85.937500
5392,85.937500
5393,85.937500
5394,85.937500
5395,85.937500
5396,85.937500
5397,85.937500
5398,82.031250
5399,82.031250
5400,82.031250
5401,82.031250
5402,82.031250
5403,78.125000
5404,78.125000
5405,78.125000
5406,78.125000
5407,78.125000
5408,78.125000
5409,78.125000
5410,78.125000
5411,74.218750
5412,74.218750
5413,74.218750
5414,74.218750
5415,74.218750
5416,74.218750
5417,70.312500
5418,70.312500
5419,70.312500
5420,70.312500
5421,70.312500
5422,70.312500
5423,66.406250
5424,66.406250
5425,66.406250
5426,66.406250
5427,66.406250
5428,62.500000
5429,62.500000
5430,62.500000
5431,62.500000
5432,62.500000
5433,62.500000
5434,58.593750
5435,58.593750
5436,58.593750
5437,58.593750
5438,58.593750
5439,58.593750
5440,54.687500
5441,54.687500
5442,54.687500
5443,54.687500
5444,50.781250
5445,50.781250
5446,50.781250
5447,50.781250
5448,50.781250
5449,50.781250
5450,46.875000
5451,46.875000
5452,46.875000
5453,46.875000
5454,42.968750
5455,42.968750
5456,42.968750
5457,42.968750
5458,42.968750
5459,42.968750
5460,39.062500
5461,39.062500
5462,39.062500
5463,39.062500
5464,39.062500
5465,35.156250
5466,35.156250
5467,35.156250
5468,31.250000
5469,31.250000
5470,31.250000
5471,31.250000
5472,27.343750
5473,27.343750
5474,27.343750
5475,27.343750
5476,27.343750
5477,27.343750
5478,23.437500
5479,23.437500
5480,23.437500
5481,23.437500
5482,19.531250
5483,19.531250
5484,19.531250
5485,19.531250
5486,15.625000
5487,15.625000
5488,15.625000
5489,15.625000
5490,15.625000
5491,15.625000
5492,11.718750
5493,11.718750
5494,11.718750
5495,7.812500
5496,7.812500
5497,7.812500
5498,7.812500
5499,7.812500
5500,3.906250
5501,3.906250
5502,3.906250
5503,3.906250
5504,0.000000
5505,0.000000
5506,0.000000
5507,0.000000
5508,-3.906250
5509,-3.906250
5510,-3.906250
5511,-3.906250
5512,-7.812500
5513,-7.812500
5514,-7.812500
5515,-7.812500
5516,-7.812500
5517,-11.718750
5518,-11.718750
5519,-11.718750
5520,-11.718750
5521,-15.625000
5522,-15.625000
5523,-15.625000
5524,-15.625000
5525,-19.531250
5526,-19.531250
5527,-19.531250
5528,-19.531250
5529,-23.437500
5530,-23.437500
5531,-23.437500
5532,-23.437500
5533,-27.343750
5534,-27.343750
5535,-27.343750
5536,-27.343750
5537,-31.250000
5538,-31.250000
5539,-31.250000
5540,-31.250000
5541,-31.250000
5542,-35.156250
5543,-35.156250
5544,-35.156250
5545,-35.156250
5546,-39.062500
5547,-39.062500
5548,-39.062500
5549,-39.062500
5550,-42.968750
5551,-42.968750
5552,-42.968750
5553,-42.968750
5554,-46.875000
5555,-46.875000
5556,-46.875000
5557,-46.875000
5558,-46.875000
5559,-50.781250
5560,-50.781250
5561,-50.781250
5562,-54.687500
5563,-54.687500
5564,-54.687500
5565,-54.687500
5566,-54.687500
5567,-58.593750
5568,-58.593750
5569,-58.593750
5570,-58.593750
5571,-62.500000
5572,-62.500000
5573,-62.500000
5574,-62.500000
5575,-66.406250
5576,-66.406250
5577,-66.406250
5578,-66.406250
5579,-66.406250
5580,-70.312500
5581,-70.312500
5582,-70.312500
5583,-70.312500
5584,-74.218750
5585,-74.218750
5586,-74.218750
5587,-74.218750
5588,-78.125000
5589,-78.125000
5590,-78.125000
5591,-78.125000
5592,-78.125000
5593,-82.031250
5594,-82.031250
5595,-82.031250
5596,-85.937500
5597,-85.937500
5598,-85.937500
5599,-85.937500
5600,-85.937500
5601,-85.937500
5602,-89.843750
5603,-89.843750
5604,-89.843750
5605,-89.843750
5606,-93.750000
5607,-93.750000
5608,-93.750000
5609,-93.750000
5610,-97.656250
5611,-97.656250
5612,-97.656250
5613,-97.656250
5614,-101.562500
5615,-97.656250
5616,-101.562500
5617,-101.562500
5618,-101.562500
5619,-101.562500
5620,-105.468750
5621,-105.468750
5622,-105.468750
5623,-105.468750
5624,-109.375000
5625,-109.375000
5626,-109.375000
5627,-109.375000
5628,-109.375000
5629,-109.375000
5630,-113.281250
5631,-113.281250
5632,-113.281250
5633,-113.281250
5634,-113.281250
5635,-113.281250
5636,-117.187500
5637,-117.187500
5638,-117.187500
5639,-117.187500
5640,-117.187500
5641,-121.093750
5642,-121.093750
5643,-121.093750
5644,-121.093750
5645,-121.093750
5646,-125.000000
5647,-125.000000
5648,-125.000000
5649,-125.000000
5650,-125.000000
5651,-125.000000
5652,-128.906250
5653,-128.906250
5654,-128.906250
5655,-128.906250
5656,-128.906250
5657,-128.906250
5658,-132.812500
5659,-132.812500
5660,-132.812500
5661,-132.812500
5662,-132.812500
5663,-132.812500
5664,-132.812500
5665,-136.718750
5666,-136.718750
5667,-136.718750
5668,-136.718750
5669,-136.718750
5670,-136.718750
5671,-140.625000
5672,-140.625000
5673,-140.625000
5674,-140.625000
5675,-140.625000
5676,-140.625000
5677,-140.625000
5678,-140.625000
5679,-144.531250
5680,-144.531250
5681,-144.531250
5682,-144.531250
5683,-144.531250
5684,-144.531250
5685,-144.531250
5686,-148.437500
5687,-148.437500
5688,-148.437500
5689,-148.437500
5690,-148.437500
5691,-148.437500
5692,-148.437500
5693,-148.437500
5694,-148.437500
5695,-152.343750
5696,-152.343750
5697,-152.343750
5698,-152.343750
5699,-152.343750
5700,-152.343750
5701,-152.343750
5702,-152.343750
5703,-152.343750
5704,-156.250000
5705,-152.343750
5706,-156.250000
5707,-156.250000
5708,-156.250000
5709,-156.250000
5710,-156.250000
5711,-156.250000
5712,-156.250000
5713,-156.250000
5714,-156.250000
5715,-160.156250
5716,-156.250000
5717,-160.156250
5718,-160.156250
5719,-160.156250
5720,-160.156250
5721,-160.156250
5722,-160.156250
5723,-160.156250
5724,-160.156250
5725,-160.156250
5726,-160.156250
5727,-160.156250
5728,-160.156250
5729,-160.156250
5730,-160.156250
5731,-164.062500
5732,-164.062500
5733,-164.062500
5734,-164.062500
5735,-164.062500
5736,-164.062500
5737,-164.062500
5738,-164.062500
5739,-164.062500
5740,-164.062500
5741,-164.062500
5742,-164.062500
5743,-164.062500
5744,-164.062500
5745,-164.062500
5746,-164.062500
5747,-164.062500
5748,-164.062500
5749,-164.062500
5750,-164.062500
5751,-164.062500
5752,-164.062500
5753,-164.062500
5754,-164.062500
5755,-164.062500
5756,-167.968750
5757,-164.062500
5758,-164.062500
5759,-164.062500
5760,-164.062500
5761,-164.062500
5762,-164.062500
5763,-164.062500
5764,-164.062500
5765,-164.062500
5766,-164.062500
5767,-164.062500
5768,-164.062500
5769,-164.062500
5770,-164.062500
5771,-164.062500
5772,-164.062500
5773,-164.062500
5774,-164.062500
5775,-164.062500
5776,-164.062500
5777,-164.062500
5778,-164.062500
5779,-164.062500
5780,-164.062500
5781,-164.062500
5782,-164.062500
5783,-164.062500
5784,-164.062500
5785,-164.062500
5786,-164.062500
5787,-164.062500
5788,-160.156250
5789,-160.156250
5790,-164.062500
5791,-160.156250
5792,-164.062500
5793,-160.156250
5794,-160.156250
5795,-160.156250
5796,-160.156250
5797,-160.156250
5798,-160.156250
5799,-160.156250
5800,-160.156250
5801,-160.156250
5802,-160.156250
5803,-160.156250
5804,-156.250000
5805,-156.250000
5806,-156.250000
5807,-156.250000
5808,-156.250000
5809,-156.250000
5810,-156.250000
5811,-156.250000
5812,-156.250000
5813,-156.250000
5814,-156.250000
5815,-156.250000
5816,-156.250000
5817,-156.250000
5818,-156.250000
5819,-152.343750
5820,-152.343750
5821,-152.343750
5822,-152.343750
5823,-152.343750
5824,-152.343750
5825,-152.343750
5826,-152.343750
5827,-148.437500
5828,-148.437500
5829,-148.437500
5830,-148.437500
5831,-148.437500
5832,-148.437500
5833,-148.437500
5834,-148.437500
5835,-144.531250
5836,-144.531250
5837,-144.531250
5838,-144.531250
5839,-144.531250
5840,-144.531250
5841,-144.531250
5842,-144.531250
5843,-144.531250
5844,-144.531250
5845,-140.625000
5846,-140.625000
5847,-140.625000
5848,-140.625000
5849,-140.625000
5850,-140.625000
5851,-136.718750
5852,-136.718750
5853,-136.718750
5854,-136.718750
5855,-136.718750
5856,-136.718750
5857,-136.718750
5858,-132.812500
5859,-132.812500
5860,-132.812500
5861,-132.812500
5862,-132.812500
5863,-132.812500
5864,-128.906250
5865,-128.906250
5866,-128.906250
5867,-128.906250
5868,-128.906250
5869,-128.906250
5870,-125.000000
5871,-125.000000
5872,-125.000000
5873,-125.000000
5874,-125.000000
5875,-125.000000
5876,-125.000000
5877,-121.093750
5878,-121.093750
5879,-121.093750
5880,-121.093750
5881,-121.093750
5882,-117.187500
5883,-117.187500
5884,-117.187500
5885,-117.187500
5886,-117.187500
5887,-113.281250
5888,-113.281250
5889,-113.281250
5890,-113.281250
5891,-113.281250
5892,-113.281250
5893,-109.375000
5894,-109.375000
5895,-109.375000
5896,-109.375000
5897,-109.375000
5898,-105.468750
5899,-105.468750
5900,-105.468750
5901,-105.468750
5902,-105.468750
5903,-101.562500
5904,-101.562500
5905,-101.562500
5906,-101.562500
5907,-97.656250
5908,-97.656250
5909,-97.656250
5910,-97.656250
5911,-97.656250
5912,-93.750000
5913,-93.750000
5914,-93.750000
5915,-93.750000
5916,-93.750000
5917,-89.843750
5918,-89.843750
5919,-89.843750
5920,-89.843750
5921,-85.937500
5922,-85.937500
5923,-85.937500
5924,-85.937500
5925,-82.031250
5926,-82.031250
5927,-82.031250
5928,-82.031250
5929,-82.031250
5930,-82.031250
5931,-78.125000
5932,-78.125000
5933,-78.125000
5934,-78.125000
5935,-74.218750
5936,-74.218750
5937,-74.218750
5938,-74.218750
5939,-70.312500
5940,-70.312500
5941,-70.312500
5942,-70.312500
5943,-70.312500
5944,-66.406250
5945,-66.406250
5946,-66.406250
5947,-66.406250
5948,-62.500000
5949,-62.500000
5950,-62.500000
5951,-62.500000
5952,-58.593750
5953,-58.593750
5954,-58.593750
5955,-58.593750
5956,-54.687500
5957,-54.687500
5958,-54.687500
5959,-50.781250
5960,-54.687500
5961,-50.781250
5962,-50.781250
5963,-50.781250
5964,-50.781250
5965,-46.875000
5966,-46.875000
5967,-46.875000
5968,-46.875000
5969,-42.968750
5970,-42.968750
5971,-42.968750
5972,-42.968750
5973,-42.968750
5974,-39.062500
5975,-39.062500
5976,-39.062500
5977,-39.062500
5978,-35.156250
5979,-35.156250
5980,-35.156250
5981,-35.156250
5982,-31.250000
5983,-31.250000
5984,-31.250000
5985,-31.250000
5986,-27.343750
5987,-27.343750
5988,-27.343750
5989,-23.437500
5990,-23.437500
5991,-23.437500
5992,-23.437500
5993,-23.437500
5994,-19.531250
5995,-19.531250
5996,-19.531250
5997,-19.531250
5998,-19.531250
5999,-15.625000
6000,-15.625000
6001,-15.625000
6002,-11.718750
6003,-11.718750
6004,-11.718750
6005,-11.718750
6006,-11.718750
6007,-7.812500
6008,-7.812500
6009,-7.812500
6010,-7.812500
6011,-7.812500
6012,-3.906250
6013,-3.906250
6014,-3.906250
6015,-3.906250
6016,0.000000
6017,0.000000
6018,0.000000
6019,0.000000
6020,3.906250
6021,3.906250
6022,3.906250
6023,3.906250
6024,7.812500
6025,7.812500
6026,7.812500
6027,7.812500
6028,11.718750
6029,7.812500
6030,11.718750
6031,11.718750
6032,11.718750
6033,15.625000
6034,15.625000
6035,15.625000
6036,15.625000
6037,19.531250
6038,19.531250
6039,19.531250
6040,23.437500
6041,19.531250
6042,23.437500
6043,23.437500
6044,23.437500
6045,23.437500
6046,23.437500
6047,27.343750
6048,27.343750
6049,27.343750
6050,27.343750
6051,27.343750
6052,31.250000
6053,31.250000
6054,31.250000
6055,31.250000
6056,35.156250
6057,35.156250
6058,35.156250
6059,35.156250
6060,39.062500
6061,39.062500
6062,39.062500
6063,39.062500
6064,39.062500
6065,42.968750
6066,42.968750
6067,42.968750
6068,42.968750
6069,42.968750
6070,46.875000
6071,46.875000
6072,46.875000
6073,46.875000
6074,46.875000
6075,46.875000
6076,50.781250
6077,50.781250
6078,50.781250
6079,50.781250
6080,54.687500
6081,54.687500
6082,54.687500
6083,54.687500
6084,54.687500
6085,54.687500
6086,58.593750
6087,58.593750
6088,58.593750
6089,58.593750
6090,62.500000
6091,58.593750
6092,62.500000
6093,62.500000
6094,62.500000
6095,62.500000
6096,62.500000
6097,66.406250
6098,66.406250
6099,66.406250
6100,66.406250
6101,66.406250
6102,66.406250
6103,70.312500
6104,70.312500
6105,70.312500
6106,70.312500
6107,70.312500
6108,70.312500
6109,70.312500
6110,74.218750
6111,74.218750
6112,74.218750
6113,74.218750
6114,74.218750
6115,74.218750
6116,78.125000
6117,78.125000
6118,78.125000
6119,78.125000
6120,78.125000
6121,78.125000
6122,82.031250
6123,82.031250
6124,82.031250
6125,82.031250
6126,82.031250
6127,82.031250
6128,82.031250
6129,82.031250
6130,85.937500
6131,85.937500
6132,85.937500
6133,85.937500
6134,85.937500
6135,85.937500
6136,89.843750
6137,89.843750
6138,89.843750
6139,89.843750
6140,89.843750
6141,89.843750
6142,89.843750
6143,93.750000
6144,93.750000
6145,93.750000
6146,93.750000
6147,93.750000
6148,93.750000
6149,93.750000
6150,93.750000
6151,97.656250
6152,97.656250
6153,97.656250
6154,97.656250
6155,97.656250
6156,97.656250
6157,101.562500
6158,97.656250
6159,101.562500
6160,101.562500
6161,101.562500
6162,101.562500
6163,101.562500
6164,101.562500
6165,101.562500
6166,101.562500
6167,101.562500
6168,101.562500
6169,101.562500
6170,105.468750
6171,105.468750
6172,105.468750
6173,105.468750
6174,105.468750
6175,105.468750
6176,105.468750
6177,105.468750
6178,109.375000
6179,109.375000
6180,109.375000
6181,109.375000
6182,109.375000
6183,109.375000
6184,109.375000
6185,109.375000
6186,109.375000
6187,109.375000
6188,109.375000
6189,109.375000
6190,109.375000
6191,113.281250
6192,113.281250
6193,113.281250
6194,113.281250
6195,113.281250
6196,113.281250
6197,113.281250
6198,113.281250
6199,113.281250
6200,113.281250
6201,113.281250
6202,113.281250
6203,117.187500
6204,117.187500
6205,117.187500
6206,117.187500
6207,117.187500
6208,117.187500
6209,113.281250
6210,117.187500
6211,117.187500
6212,117.187500
6213,117.187500
6214,117.187500
6215,117.187500
6216,117.187500
6217,117.187500
6218,117.187500
6219,117.187500
6220,117.187500
6221,117.187500
6222,117.187500
6223,121.093750
6224,117.187500
6225,121.093750
6226,121.093750
6227,121.093750
6228,121.093750
6229,121.093750
6230,121.093750
6231,121.093750
6232,121.093750
6233,121.093750
6234,121.093750
6235,121.093750
6236,121.093750
6237,121.093750
6238,121.093750
6239,121.093750
6240,121.093750
6241,121.093750
6242,121.093750
6243,121.093750
6244,121.093750
6245,121.093750
6246,121.093750
6247,121.093750
6248,121.093750
6249,121.093750
6250,121.093750
6251,121.093750
6252,121.093750
6253,121.093750
6254,121.093750
6255,121.093750
6256,121.093750
6257,121.093750
6258,121.093750
6259,121.093750
6260,121.093750
6261,121.093750
6262,121.093750
6263,121.093750
6264,121.093750
6265,121.093750
6266,121.093750
6267,121.093750
6268,121.093750
6269,121.093750
6270,121.093750
6271,121.093750
6272,121.093750
6273,121.093750
6274,121.093750
6275,121.093750
6276,121.093750
6277,121.093750
6278,121.093750
6279,121.093750
6280,121.093750
6281,121.093750
6282,121.093750
6283,121.093750
6284,117.187500
6285,121.093750
6286,121.093750
6287,121.093750
6288,117.187500
6289,121.093750
6290,121.093750
6291,121.093750
6292,117.187500
6293,121.093750
6294,117.187500
6295,117.187500
6296,117.187500
6297,117.187500
6298,117.187500
6299,117.187500
6300,117.187500
6301,117.187500
6302,117.187500
6303,117.187500
6304,117.187500
6305,117.187500
6306,117.187500
6307,117.187500
6308,117.187500
6309,117.187500
6310,113.281250
6311,113.281250
6312,117.187500
6313,113.281250
6314,113.281250
6315,113.281250
6316,113.281250
6317,113.281250
6318,113.281250
6319,113.281250
6320,113.281250
6321,113.281250
6322,113.281250
6323,113.281250
6324,113.281250
6325,113.281250
6326,113.281250
6327,109.375000
6328,109.375000
6329,109.375000
6330,109.375000
6331,109.375000
6332,109.375000
6333,109.375000
6334,109.375000
6335,109.375000
6336,109.375000
6337,109.375000
6338,105.468750
6339,105.468750
6340,105.468750
6341,105.468750
6342,105.468750
6343,105.468750
6344,105.468750
6345,105.468750
6346,105.468750
6347,101.562500
6348,105.468750
6349,101.562500
6350,101.562500
6351,105.468750
6352,101.562500
6353,101.562500
6354,97.656250
6355,101.562500
6356,101.562500
6357,101.562500
6358,97.656250
6359,97.656250
6360,97.656250
6361,97.656250
6362,97.656250
6363,97.656250
6364,93.750000
6365,97.656250
6366,93.750000
6367,93.750000
6368,93.750000
6369,93.750000
6370,93.750000
6371,93.750000
6372,93.750000
6373,89.843750
6374,89.843750
6375,89.843750
6376,89.843750
6377,89.843750
6378,89.843750
6379,89.843750
6380,85.937500
6381,85.937500
6382,85.937500
6383,85.937500
6384,85.937500
6385,85.937500
6386,85.937500
6387,82.031250
6388,82.031250
6389,82.031250
6390,82.031250
6391,82.031250
6392,82.031250
6393,82.031250
6394,78.125000
6395,78.125000
6396,78.125000
6397,78.125000
6398,78.125000
6399,78.125000
6400,74.218750
6401,74.218750
6402,74.218750
6403,74.218750
6404,74.218750
6405,74.218750
6406,70.312500
6407,70.312500
6408,70.312500
6409,70.312500
6410,70.312500
6411,70.312500
6412,66.406250
6413,66.406250
6414,66.406250
6415,66.406250
6416,62.500000
6417,62.500000
6418,62.500000
6419,62.500000
6420,62.500000
6421,62.500000
6422,62.500000
6423,58.593750
6424,58.593750
6425,58.593750
6426,54.687500
6427,58.593750
6428,54.687500
6429,54.687500
6430,54.687500
6431,54.687500
6432,54.687500
6433,54.687500
6434,50.781250
6435,50.781250
6436,50.781250
6437,50.781250
6438,50.781250
6439,46.875000
6440,46.875000
6441,46.875000
6442,46.875000
6443,46.875000
6444,42.968750
6445,42.968750
6446,42.968750
6447,42.968750
6448,39.062500
6449,39.062500
6450,39.062500
6451,35.156250
6452,39.062500
6453,39.062500
6454,35.156250
6455,35.156250
6456,35.156250
6457,31.250000
6458,35.156250
6459,31.250000
6460,31.250000
6461,31.250000
6462,31.250000
6463,27.343750
6464,27.343750
6465,27.343750
6466,27.343750
6467,23.437500
6468,23.437500
6469,23.437500
6470,23.437500
6471,23.437500
6472,19.531250
6473,19.531250
6474,19.531250
6475,19.531250
6476,15.625000
6477,15.625000
6478,15.625000
6479,15.625000
6480,15.625000
6481,11.718750
6482,11.718750
6483,11.718750
6484,11.718750
6485,7.812500
6486,7.812500
6487,7.812500
6488,7.812500
6489,7.812500
6490,3.906250
6491,3.906250
6492,3.906250
6493,0.000000
6494,0.000000
6495,0.000000
6496,0.000000
6497,0.000000
6498,-3.906250
6499,-3.906250
6500,-3.906250
6501,-3.906250
6502,-3.906250
6503,-7.812500
6504,-7.812500
6505,-7.812500
6506,-11.718750
6507,-11.718750
6508,-11.718750
6509,-11.718750
6510,-11.718750
6511,-15.625000
6512,-15.625000
6513,-15.625000
6514,-15.625000
6515,-19.531250
6516,-19.531250
6517,-19.531250
6518,-19.531250
6519,-23.437500
6520,-23.437500
6521,-23.437500
6522,-27.343750
6523,-23.437500
6524,-27.343750
6525,-27.343750
6526,-31.250000
6527,-31.250000
6528,-31.250000
6529,-31.250000
6530,-31.250000
6531,-31.250000
6532,-35.156250
6533,-35.156250
6534,-35.156250
6535,-39.062500
6536,-39.062500
6537,-39.062500
6538,-39.062500
6539,-42.968750
6540,-42.968750
6541,-42.968750
6542,-42.968750
6543,-42.968750
6544,-46.875000
6545,-46.875000
6546,-46.875000
6547,-46.875000
6548,-50.781250
6549,-50.781250
6550,-50.781250
6551,-50.781250
6552,-54.687500
6553,-54.687500
6554,-54.687500
6555,-54.687500
6556,-58.593750
6557,-58.593750
6558,-58.593750
6559,-58.593750
6560,-62.500000
6561,-58.593750
6562,-62.500000
6563,-62.500000
6564,-66.406250
6565,-66.406250
6566,-66.406250
6567,-66.406250
6568,-66.406250
6569,-66.406250
6570,-70.312500
6571,-70.312500
6572,-70.312500
6573,-74.218750
6574,-74.218750
6575,-74.218750
6576,-74.218750
6577,-74.218750
6578,-78.125000
6579,-78.125000
6580,-78.125000
6581,-78.125000
6582,-82.031250
6583,-82.031250
6584,-82.031250
6585,-82.031250
6586,-85.937500
6587,-85.937500
6588,-85.937500
6589,-85.937500
6590,-85.937500
6591,-85.937500
6592,-89.843750
6593,-89.843750
6594,-89.843750
6595,-89.843750
6596,-89.843750
6597,-93.750000
6598,-93.750000
6599,-93.750000
6600,-93.750000
6601,-97.656250
6602,-97.656250
6603,-97.656250
6604,-97.656250
6605,-101.562500
6606,-101.562500
6607,-101.562500
6608,-101.562500
6609,-101.562500
6610,-105.468750
6611,-105.468750
6612,-105.468750
6613,-105.468750
6614,-105.468750
6615,-109.375000
6616,-109.375000
6617,-109.375000
6618,-109.375000
6619,-109.375000
6620,-113.281250
6621,-113.281250
6622,-113.281250
6623,-113.281250
6624,-113.281250
6625,-113.281250
6626,-117.187500
6627,-117.187500
6628,-117.187500
6629,-117.187500
6630,-121.093750
6631,-121.093750
6632,-121.093750
6633,-121.093750
6634,-121.093750
6635,-121.093750
6636,-121.093750
6637,-125.000000
6638,-125.000000
6639,-125.000000
6640,-125.000000
6641,-125.000000
6642,-125.000000
6643,-128.906250
6644,-128.906250
6645,-128.906250
6646,-128.906250
6647,-128.906250
6648,-128.906250
6649,-128.906250
6650,-132.812500
6651,-132.812500
6652,-132.812500
6653,-132.812500
6654,-132.812500
6655,-136.718750
6656,-136.718750
6657,-136.718750
6658,-136.718750
6659,-136.718750
6660,-136.718750
6661,-136.718750
6662,-140.625000
6663,-140.625000
6664,-140.625000
6665,-140.625000
6666,-140.625000
6667,-140.625000
6668,-140.625000
6669,-144.531250
6670,-144.531250
6671,-144.531250
6672,-144.531250
6673,-144.531250
6674,-144.531250
6675,-144.531250
6676,-144.531250
6677,-148.437500
6678,-148.437500
6679,-148.437500
6680,-148.437500
6681,-148.437500
6682,-148.437500
6683,-148.437500
6684,-148.437500
6685,-148.437500
6686,-152.343750
6687,-148.437500
6688,-152.343750
6689,-152.343750
6690,-152.343750
6691,-152.343750
6692,-152.343750
6693,-152.343750
6694,-152.343750
6695,-152.343750
6696,-152.343750
6697,-152.343750
6698,-156.250000
6699,-156.250000
6700,-156.250000
6701,-156.250000
6702,-156.250000
6703,-156.250000
6704,-156.250000
6705,-156.250000
6706,-156.250000
6707,-156.250000
6708,-156.250000
6709,-156.250000
6710,-156.250000
6711,-160.156250
6712,-160.156250
6713,-160.156250
6714,-160.156250
6715,-160.156250
6716,-160.156250
6717,-160.156250
6718,-160.156250
6719,-160.156250
6720,-160.156250
6721,-160.156250
6722,-160.156250
6723,-160.156250
6724,-160.156250
6725,-160.156250
6726,-160.156250
6727,-160.156250
6728,-160.156250
6729,-164.062500
6730,-164.062500
6731,-164.062500
6732,-164.062500
6733,-164.062500
6734,-164.062500
6735,-164.062500
6736,-164.062500
6737,-164.062500
6738,-164.062500
6739,-164.062500
6740,-164.062500
6741,-164.062500
6742,-164.062500
6743,-164.062500
6744,-164.062500
6745,-164.062500
6746,-164.062500
6747,-164.062500
6748,-164.062500
6749,-164.062500
6750,-164.062500
6751,-164.062500
6752,-164.062500
6753,-164.062500
6754,-164.062500
6755,-164.062500
6756,-164.062500
6757,-164.062500
6758,-164.062500
6759,-164.062500
6760,-164.062500
6761,-164.062500
6762,-164.062500
6763,-164.062500
6764,-164.062500
6765,-160.156250
6766,-164.062500
6767,-164.062500
6768,-164.062500
6769,-164.062500
6770,-164.062500
6771,-164.062500
6772,-164.062500
6773,-160.156250
6774,-160.156250
6775,-160.156250
6776,-160.156250
6777,-160.156250
6778,-160.156250
6779,-160.156250
6780,-160.156250
6781,-160.156250
6782,-160.156250
6783,-160.156250
6784,-160.156250
6785,-160.156250
6786,-160.156250
6787,-160.156250
6788,-160.156250
6789,-160.156250
6790,-160.156250
6791,-160.156250
6792,-160.156250
6793,-160.156250
6794,-156.250000
6795,-156.250000
6796,-156.250000
6797,-156.250000
6798,-156.250000
6799,-156.250000
6800,-156.250000
6801,-156.250000
6802,-156.250000
6803,-156.250000
6804,-152.343750
6805,-152.343750
6806,-152.343750
6807,-152.343750
6808,-152.343750
6809,-152.343750
6810,-152.343750
6811,-152.343750
6812,-152.343750
6813,-148.437500
6814,-148.437500
6815,-148.437500
6816,-148.437500
6817,-148.437500
6818,-148.437500
6819,-148.437500
6820,-148.437500
6821,-148.437500
6822,-148.437500
6823,-144.531250
6824,-144.531250
6825,-144.531250
6826,-144.531250
6827,-144.531250
6828,-144.531250
6829,-144.531250
6830,-144.531250
6831,-144.531250
6832,-140.625000
6833,-140.625000
6834,-140.625000
6835,-140.625000
6836,-140.625000
6837,-140.625000
6838,-140.625000
6839,-136.718750
6840,-136.718750
6841,-136.718750
6842,-136.718750
6843,-136.718750
6844,-136.718750
6845,-132.812500
6846,-132.812500
6847,-132.812500
6848,-132.812500
6849,-132.812500
6850,-132.812500
6851,-132.812500
6852,-128.906250
6853,-128.906250
6854,-128.906250
6855,-128.906250
6856,-128.906250
6857,-128.906250
6858,-125.000000
6859,-125.000000
6860,-125.000000
6861,-125.000000
6862,-125.000000
6863,-125.000000
6864,-121.093750
6865,-121.093750
6866,-121.093750
6867,-121.093750
6868,-121.093750
6869,-121.093750
6870,-121.093750
6871,-117.187500
6872,-117.187500
6873,-117.187500
6874,-117.187500
6875,-113.281250
6876,-113.281250
6877,-113.281250
6878,-113.281250
6879,-113.281250
6880,-113.281250
6881,-109.375000
6882,-109.375000
6883,-109.375000
6884,-109.375000
6885,-109.375000
6886,-105.468750
6887,-105.468750
6888,-105.468750
6889,-105.468750
6890,-105.468750
6891,-101.562500
6892,-101.562500
6893,-101.562500
6894,-101.562500
6895,-101.562500
6896,-101.562500
6897,-97.656250
6898,-97.656250
6899,-97.656250
6900,-97.656250
6901,-93.750000
6902,-93.750000
6903,-93.750000
6904,-93.750000
6905,-93.750000
6906,-89.843750
6907,-89.843750
6908,-89.843750
6909,-89.843750
6910,-85.937500
6911,-85.937500
6912,-85.937500
6913,-85.937500
6914,-85.937500
6915,-85.937500
6916,-82.031250
6917,-82.031250
6918,-82.031250
6919,-78.125000
6920,-78.125000
6921,-78.125000
6922,-78.125000
6923,-78.125000
6924,-78.125000
6925,-74.218750
6926,-74.218750
6927,-74.218750
6928,-74.218750
6929,-70.312500
6930,-70.312500
6931,-70.312500
6932,-70.312500
6933,-66.406250
6934,-66.406250
6935,-66.406250
6936,-66.406250
6937,-62.500000
6938,-62.500000
6939,-62.500000
6940,-62.500000
6941,-58.593750
6942,-58.593750
6943,-58.593750
6944,-58.593750
6945,-58.593750
6946,-54.687500
6947,-54.687500
6948,-54.687500
6949,-54.687500
6950,-50.781250
6951,-50.781250
6952,-50.781250
6953,-50.781250
6954,-50.781250
6955,-46.875000
6956,-46.875000
6957,-46.875000
6958,-46.875000
6959,-42.968750
6960,-42.968750
6961,-42.968750
6962,-42.968750
6963,-39.062500
6964,-39.062500
6965,-39.062500
6966,-39.062500
6967,-35.156250
6968,-35.156250
6969,-35.156250
6970,-31.250000
6971,-31.250000
6972,-31.250000
6973,-31.250000
6974,-31.250000
6975,-27.343750
6976,-27.343750
6977,-27.343750
6978,-27.343750
6979,-23.437500
6980,-23.437500
6981,-23.437500
6982,-23.437500
6983,-23.437500
6984,-19.531250
6985,-19.531250
6986,-19.531250
6987,-19.531250
6988,-15.625000
6989,-15.625000
6990,-15.625000
6991,-15.625000
6992,-15.625000
6993,-11.718750
6994,-11.718750
6995,-11.718750
6996,-11.718750
6997,-7.812500
6998,-7.812500
6999,-7.812500
7000,-3.906250
7001,-3.906250
7002,-3.906250
7003,-3.906250
7004,-3.906250
7005,0.000000
7006,0.000000
7007,0.000000
7008,0.000000
7009,3.906250
7010,3.906250
7011,3.906250
7012,3.906250
7013,3.906250
7014,7.812500
7015,7.812500
7016,7.812500
7017,7.812500
7018,11.718750
7019,11.718750
7020,11.718750
7021,11.718750
7022,11.718750
7023,15.625000
7024,15.625000
7025,15.625000
7026,15.625000
7027,19.531250
7028,19.531250
7029,19.531250
7030,19.531250
7031,19.531250
7032,19.531250
7033,23.437500
7034,23.437500
7035,23.437500
7036,27.343750
7037,27.343750
7038,27.343750
7039,27.343750
7040,27.343750
7041,31.250000
7042,31.250000
7043,31.250000
7044,31.250000
7045,31.250000
7046,35.156250
7047,35.156250
7048,35.156250
7049,35.156250
7050,35.156250
7051,39.062500
7052,39.062500
7053,39.062500
7054,39.062500
7055,39.062500
7056,42.968750
7057,42.968750
7058,42.968750
7059,42.968750
7060,46.875000
7061,46.875000
7062,46.875000
7063,46.875000
7064,46.875000
7065,46.875000
7066,50.781250
7067,50.781250
7068,50.781250
7069,50.781250
7070,50.781250
7071,54.687500
7072,54.687500
7073,54.687500
7074,54.687500
7075,54.687500
7076,58.593750
7077,58.593750
7078,58.593750
7079,58.593750
7080,58.593750
7081,58.593750
7082,62.500000
7083,62.500000
7084,62.500000
7085,62.500000
7086,62.500000
7087,66.406250
7088,66.406250
7089,66.406250
7090,66.406250
7091,66.406250
7092,66.406250
7093,70.312500
7094,70.312500
7095,70.312500
7096,70.312500
7097,70.312500
7098,70.312500
7099,74.218750
7100,74.218750
7101,74.218750
7102,74.218750
7103,74.218750
7104,74.218750
7105,78.125000
7106,78.125000
7107,78.125000
7108,78.125000
7109,78.125000
7110,78.125000
7111,82.031250
7112,82.031250
7113,82.031250
7114,82.031250
7115,82.031250
7116,82.031250
7117,85.937500
7118,85.937500
7119,85.937500
7120,85.937500
7121,85.937500
7122,85.937500
7123,85.937500
7124,85.937500
7125,89.843750
7126,89.843750
7127,89.843750
7128,89.843750
7129,89.843750
7130,89.843750
7131,89.843750
7132,89.843750
7133,93.750000
7134,93.750000
7135,93.750000
7136,93.750000
7137,93.750000
7138,93.750000
7139,97.656250
7140,93.750000
7141,97.656250
7142,97.656250
7143,97.656250
7144,97.656250
7145,97.656250
7146,97.656250
7147,97.656250
7148,97.656250
7149,97.656250
7150,101.562500
7151,101.562500
7152,101.562500
7153,101.562500
7154,101.562500
7155,101.562500
7156,101.562500
7157,105.468750
7158,101.562500
7159,105.468750
7160,105.468750
7161,105.468750
7162,105.468750
7163,105.468750
7164,105.468750
7165,105.468750
7166,105.468750
7167,105.468750
7168,105.468750
7169,109.375000
7170,105.468750
7171,109.375000
7172,109.375000
7173,109.375000
7174,109.375000
7175,109.375000
7176,109.375000
7177,109.375000
7178,109.375000
7179,109.375000
7180,109.375000
7181,113.281250
7182,109.375000
7183,113.281250
7184,113.281250
7185,113.281250
7186,113.281250
7187,113.281250
7188,113.281250
7189,113.281250
7190,113.281250
7191,113.281250
7192,113.281250
7193,113.281250
7194,113.281250
7195,113.281250
7196,113.281250
7197,117.187500
7198,117.187500
7199,117.187500
7200,117.187500
7201,117.187500
7202,117.187500
7203,117.187500
7204,117.187500
7205,117.187500
7206,117.187500
7207,117.187500
7208,117.187500
7209,117.187500
7210,117.187500
7211,117.187500
7212,117.187500
7213,121.093750
7214,117.187500
7215,121.093750
7216,121.093750
7217,121.093750
7218,117.187500
7219,121.093750
7220,121.093750
7221,121.093750
7222,121.093750
7223,121.093750
7224,121.093750
7225,121.093750
7226,121.093750
7227,121.093750
7228,121.093750
7229,121.093750
7230,121.093750
7231,121.093750
7232,121.093750
7233,121.093750
7234,121.093750
7235,121.093750
7236,121.093750
7237,121.093750
7238,121.093750
7239,121.093750
7240,121.093750
7241,121.093750
7242,121.093750
7243,121.093750
7244,121.093750
7245,121.093750
7246,121.093750
7247,121.093750
7248,121.093750
7249,121.093750
7250,121.093750
7251,121.093750
7252,121.093750
7253,121.093750
7254,121.093750
7255,121.093750
7256,121.093750
7257,121.093750
7258,121.093750
7259,121.093750
7260,121.093750
7261,121.093750
7262,121.093750
7263,121.093750
7264,121.093750
7265,121.093750
7266,121.093750
7267,121.093750
7268,121.093750
7269,121.093750
7270,121.093750
7271,121.093750
7272,121.093750
7273,121.093750
7274,121.093750
7275,121.093750
7276,121.093750
7277,121.093750
7278,121.093750
7279,117.187500
7280,121.093750
7281,117.187500
7282,121.093750
7283,117.187500
7284,117.187500
7285,117.187500
7286,117.187500
7287,117.187500
7288,117.187500
7289,117.187500
7290,117.187500
7291,117.187500
7292,117.187500
7293,117.187500
7294,117.187500
7295,117.187500
7296,117.187500
7297,117.187500
7298,117.187500
7299,117.187500
7300,117.187500
7301,113.281250
7302,117.187500
7303,113.281250
7304,113.281250
7305,113.281250
7306,113.281250
7307,113.281250
7308,113.281250
7309,113.281250
7310,113.281250
7311,113.281250
7312,113.281250
7313,113.281250
7314,113.281250
7315,113.281250
7316,109.375000
7317,109.375000
7318,109.375000
7319,109.375000
7320,109.375000
7321,109.375000
7322,109.375000
7323,109.375000
7324,109.375000
7325,109.375000
7326,109.375000
7327,105.468750
7328,105.468750
7329,105.468750
7330,105.468750
7331,105.468750
7332,105.468750
7333,105.468750
7334,105.468750
7335,105.468750
7336,105.468750
7337,101.562500
7338,101.562500
7339,101.562500
7340,101.562500
7341,101.562500
7342,101.562500
7343,101.562500
7344,101.562500
7345,101.562500
7346,101.562500
7347,97.656250
7348,97.656250
7349,97.656250
7350,97.656250
7351,97.656250
7352,97.656250
7353,97.656250
7354,97.656250
7355,93.750000
7356,93.750000
7357,93.750000
7358,93.750000
7359,93.750000
7360,93.750000
7361,93.750000
7362,93.750000
7363,89.843750
7364,89.843750
7365,89.843750
7366,89.843750
7367,89.843750
7368,89.843750
7369,89.843750
7370,85.937500
7371,89.843750
7372,85.937500
7373,85.937500
7374,85.937500
7375,85.937500
7376,85.937500
7377,82.031250
7378,82.031250
7379,82.031250
7380,82.031250
7381,82.031250
7382,82.031250
7383,82.031250
7384,78.125000
7385,78.125000
7386,78.125000
7387,78.125000
7388,78.125000
7389,78.125000
7390,78.125000
7391,74.218750
7392,74.218750
7393,74.218750
7394,74.218750
7395,74.218750
7396,70.312500
7397,70.312500
7398,70.312500
7399,70.312500
7400,70.312500
7401,66.406250
7402,66.406250
7403,66.406250
7404,66.406250
7405,66.406250
7406,66.406250
7407,62.500000
7408,62.500000
7409,62.500000
7410,62.500000
7411,62.500000
7412,62.500000
7413,62.500000
7414,58.593750
7415,58.593750
7416,58.593750
7417,58.593750
7418,54.687500
7419,54.687500
7420,54.687500
7421,54.687500
7422,54.687500
7423,54.687500
7424,50.781250
7425,50.781250
7426,50.781250
7427,50.781250
7428,50.781250
7429,46.875000
7430,46.875000
7431,46.875000
7432,46.875000
7433,46.875000
7434,46.875000
7435,42.968750
7436,42.968750
7437,42.968750
7438,39.062500
7439,39.062500
7440,39.062500
7441,39.062500
7442,39.062500
7443,39.062500
7444,35.156250
7445,35.156250
7446,35.156250
7447,35.156250
7448,31.250000
7449,31.250000
7450,31.250000
7451,31.250000
7452,31.250000
7453,27.343750
7454,27.343750
7455,27.343750
7456,27.343750
7457,23.437500
7458,23.437500
7459,23.437500
7460,23.437500
7461,23.437500
7462,19.531250
7463,19.531250
7464,19.531250
7465,19.531250
7466,15.625000
7467,15.625000
7468,15.625000
7469,15.625000
7470,11.718750
7471,11.718750
7472,11.718750
7473,11.718750
7474,11.718750
7475,7.812500
7476,7.812500
7477,7.812500
7478,7.812500
7479,7.812500
7480,3.906250
7481,3.906250
7482,3.906250
7483,3.906250
7484,0.000000
7485,0.000000
7486,0.000000
7487,0.000000
7488,-3.906250
7489,-3.906250
7490,-3.906250
7491,-3.906250
7492,-7.812500
7493,-7.812500
7494,-7.812500
7495,-7.812500
7496,-7.812500
7497,-11.718750
7498,-11.718750
7499,-11.718750
7500,-15.625000
7501,-15.625000
7502,-15.625000
7503,-15.625000
7504,-15.625000
7505,-19.531250
7506,-19.531250
7507,-19.531250
7508,-19.531250
7509,-23.437500
7510,-23.437500
7511,-23.437500
7512,-23.437500
7513,-27.343750
7514,-27.343750
7515,-27.343750
7516,-27.343750
7517,-31.250000
7518,-31.250000
7519,-31.250000
7520,-31.250000
7521,-31.250000
7522,-35.156250
7523,-35.156250
7524,-35.156250
7525,-35.156250
7526,-39.062500
7527,-39.062500
7528,-39.062500
7529,-39.062500
7530,-42.968750
7531,-42.968750
7532,-42.968750
7533,-42.968750
7534,-46.875000
7535,-46.875000
7536,-46.875000
7537,-46.875000
7538,-46.875000
7539,-50.781250
7540,-50.781250
7541,-50.781250
7542,-50.781250
7543,-54.687500
7544,-54.687500
7545,-54.687500
7546,-58.593750
7547,-58.593750
7548,-58.593750
7549,-58.593750
7550,-62.500000
7551,-62.500000
7552,-62.500000
7553,-62.500000
7554,-62.500000
7555,-66.406250
7556,-66.406250
7557,-66.406250
7558,-66.406250
7559,-70.312500
7560,-70.312500
7561,-70.312500
7562,-70.312500
7563,-70.312500
7564,-74.218750
7565,-74.218750
7566,-74.218750
7567,-74.218750
7568,-78.125000
7569,-78.125000
7570,-78.125000
7571,-78.125000
7572,-82.031250
7573,-82.031250
7574,-82.031250
7575,-82.031250
7576,-82.031250
7577,-85.937500
7578,-85.937500
7579,-85.937500
7580,-89.843750
7581,-89.843750
7582,-89.843750
7583,-89.843750
7584,-89.843750
7585,-89.843750
7586,-93.750000
7587,-93.750000
7588,-93.750000
7589,-93.750000
7590,-93.750000
7591,-97.656250
7592,-97.656250
7593,-97.656250
7594,-97.656250
7595,-97.656250
7596,-101.562500
7597,-101.562500
7598,-101.562500
7599,-101.562500
7600,-101.562500
7601,-105.468750
7602,-105.468750
7603,-105.468750
7604,-105.468750
7605,-105.468750
7606,-113.281250
7607,-109.375000
7608,-109.375000
7609,-109.375000
7610,-113.281250
7611,-113.281250
7612,-113.281250
7613,-113.281250
7614,-113.281250
7615,-113.281250
7616,-117.187500
7617,-117.187500
7618,-117.187500
7619,-117.187500
7620,-117.187500
7621,-117.187500
7622,-121.093750
7623,-121.093750
7624,-121.093750
7625,-121.093750
7626,-121.093750
7627,-121.093750
7628,-125.000000
7629,-125.000000
7630,-125.000000
7631,-125.000000
7632,-128.906250
7633,-125.000000
7634,-128.906250
7635,-128.906250
7636,-128.906250
7637,-128.906250
7638,-128.906250
7639,-128.906250
7640,-132.812500
7641,-132.812500
7642,-132.812500
7643,-132.812500
7644,-132.812500
7645,-132.812500
7646,-136.718750
7647,-136.718750
7648,-136.718750
7649,-136.718750
7650,-136.718750
7651,-136.718750
7652,-140.625000
7653,-140.625000
7654,-140.625000
7655,-140.625000
7656,-140.625000
7657,-140.625000
7658,-140.625000
7659,-140.625000
7660,-144.531250
7661,-144.531250
7662,-144.531250
7663,-144.531250
7664,-144.531250
7665,-144.531250
7666,-148.437500
7667,-148.437500
7668,-148.437500
7669,-148.437500
7670,-148.437500
7671,-148.437500
7672,-148.437500
7673,-148.437500
7674,-148.437500
7675,-148.437500
7676,-152.343750
7677,-148.437500
7678,-152.343750
7679,-152.343750
7680,-152.343750
7681,-152.343750
7682,-152.343750
7683,-152.343750
7684,-152.343750
7685,-152.343750
7686,-156.250000
7687,-156.250000
7688,-156.250000
7689,-156.250000
7690,-156.250000
7691,-156.250000
7692,-156.250000
7693,-156.250000
7694,-156.250000
7695,-156.250000
7696,-160.156250
7697,-156.250000
7698,-156.250000
7699,-160.156250
7700,-160.156250
7701,-156.250000
7702,-160.156250
7703,-160.156250
7704,-160.156250
7705,-160.156250
7706,-160.156250
7707,-160.156250
7708,-160.156250
7709,-160.156250
7710,-160.156250
7711,-160.156250
7712,-160.156250
7713,-160.156250
7714,-160.156250
7715,-160.156250
7716,-160.156250
7717,-160.156250
7718,-164.062500
7719,-160.156250
7720,-160.156250
7721,-164.062500
7722,-164.062500
7723,-164.062500
7724,-164.062500
7725,-164.062500
7726,-164.062500
7727,-164.062500
7728,-164.062500
7729,-164.062500
7730,-164.062500
7731,-164.062500
7732,-164.062500
7733,-164.062500
7734,-164.062500
7735,-164.062500
7736,-164.062500
7737,-164.062500
7738,-164.062500
7739,-164.062500
7740,-164.062500
7741,-164.062500
7742,-164.062500
7743,-164.062500
7744,-164.062500
7745,-164.062500
7746,-164.062500
7747,-164.062500
7748,-164.062500
7749,-164.062500
7750,-164.062500
7751,-164.062500
7752,-164.062500
7753,-164.062500
7754,-164.062500
7755,-164.062500
7756,-164.062500
7757,-164.062500
7758,-164.062500
7759,-160.156250
7760,-164.062500
7761,-160.156250
7762,-164.062500
7763,-164.062500
7764,-164.062500
7765,-160.156250
7766,-160.156250
7767,-160.156250
7768,-160.156250
7769,-160.156250
7770,-160.156250
7771,-160.156250
7772,-160.156250
7773,-160.156250
7774,-160.156250
7775,-160.156250
7776,-160.156250
7777,-160.156250
7778,-160.156250
7779,-160.156250
7780,-160.156250
7781,-160.156250
7782,-160.156250
7783,-156.250000
7784,-156.250000
7785,-156.250000
7786,-156.250000
7787,-156.250000
7788,-156.250000
7789,-156.250000
7790,-156.250000
7791,-156.250000
7792,-156.250000
7793,-156.250000
7794,-156.250000
7795,-156.250000
7796,-156.250000
7797,-152.343750
7798,-152.343750
7799,-152.343750
7800,-152.343750
7801,-152.343750
7802,-152.343750
7803,-152.343750
7804,-152.343750
7805,-152.343750
7806,-148.437500
7807,-148.437500
7808,-148.437500
7809,-148.437500
7810,-148.437500
7811,-148.437500
7812,-148.437500
7813,-148.437500
7814,-148.437500
7815,-148.437500
7816,-144.531250
7817,-144.531250
7818,-144.531250
7819,-144.531250
7820,-144.531250
7821,-144.531250
7822,-144.531250
7823,-140.625000
7824,-140.625000
7825,-140.625000
7826,-140.625000
7827,-140.625000
7828,-140.625000
7829,-140.625000
7830,-136.718750
7831,-136.718750
7832,-136.718750
7833,-136.718750
7834,-136.718750
7835,-136.718750
7836,-136.718750
7837,-132.812500
7838,-132.812500
7839,-132.812500
7840,-132.812500
7841,-132.812500
7842,-132.812500
7843,-128.906250
7844,-128.906250
7845,-128.906250
7846,-128.906250
7847,-128.906250
7848,-128.906250
7849,-125.000000
7850,-125.000000
7851,-125.000000
7852,-125.000000
7853,-125.000000
7854,-125.000000
7855,-121.093750
7856,-121.093750
7857,-121.093750
7858,-121.093750
7859,-121.093750
7860,-117.187500
7861,-117.187500
7862,-117.187500
7863,-117.187500
7864,-117.187500
7865,-117.187500
7866,-113.281250
7867,-113.281250
7868,-113.281250
7869,-113.281250
7870,-113.281250
7871,-109.375000
7872,-109.375000
7873,-109.375000
7874,-109.375000
7875,-109.375000
7876,-109.375000
7877,-105.468750
7878,-105.468750
7879,-105.468750
7880,-105.468750
7881,-105.468750
7882,-101.562500
7883,-101.562500
7884,-101.562500
7885,-101.562500
7886,-97.656250
7887,-97.656250
7888,-97.656250
7889,-97.656250
7890,-97.656250
7891,-93.750000
7892,-93.750000
7893,-93.750000
7894,-93.750000
7895,-93.750000
7896,-89.843750
7897,-89.843750
7898,-89.843750
7899,-85.937500
7900,-89.843750
7901,-85.937500
7902,-85.937500
7903,-85.937500
7904,-85.937500
7905,-82.031250
7906,-82.031250
7907,-82.031250
7908,-82.031250
7909,-82.031250
7910,-78.125000
7911,-78.125000
7912,-78.125000
7913,-78.125000
7914,-78.125000
7915,-74.218750
7916,-74.218750
7917,-74.218750
7918,-74.218750
7919,-70.312500
7920,-70.312500
7921,-70.312500
7922,-70.312500
7923,-66.406250
7924,-66.406250
7925,-66.406250
7926,-66.406250
7927,-66.406250
7928,-62.500000
7929,-62.500000
7930,-62.500000
7931,-62.500000
7932,-58.593750
7933,-58.593750
7934,-58.593750
7935,-58.593750
7936,-54.687500
7937,-54.687500
7938,-54.687500
7939,-54.687500
7940,-54.687500
7941,-50.781250
7942,-50.781250
7943,-50.781250
7944,-50.781250
7945,-46.875000
7946,-46.875000
7947,-46.875000
7948,-46.875000
7949,-42.968750
7950,-42.968750
7951,-42.968750
7952,-42.968750
7953,-39.062500
7954,-39.062500
7955,-39.062500
7956,-39.062500
7957,-39.062500
7958,-35.156250
7959,-35.156250
7960,-35.156250
7961,-35.156250
7962,-31.250000
7963,-31.250000
7964,-31.250000
7965,-31.250000
7966,-27.343750
7967,-27.343750
7968,-27.343750
7969,-27.343750
7970,-27.343750
7971,-23.437500
7972,-23.437500
7973,-23.437500
7974,-19.531250
7975,-23.437500
7976,-19.531250
7977,-19.531250
7978,-15.625000
7979,-15.625000
7980,-15.625000
7981,-15.625000
7982,-15.625000
7983,-11.718750
7984,-11.718750
7985,-11.718750
7986,-11.718750
7987,-7.812500
7988,-7.812500
7989,-7.812500
7990,-7.812500
7991,-3.906250
7992,-3.906250
7993,-3.906250
7994,-3.906250
7995,0.000000
7996,0.000000
7997,0.000000
7998,0.000000
7999,3.906250
8000,3.906250
8001,3.906250
8002,3.906250
8003,3.906250
8004,7.812500
8005,7.812500
8006,7.812500
8007,7.812500
8008,11.718750
8009,11.718750
8010,11.718750
8011,11.718750
8012,15.625000
8013,15.625000
8014,15.625000
8015,15.625000
8016,15.625000
8017,19.531250
8018,19.531250
8019,19.531250
8020,19.531250
8021,23.437500
8022,23.437500
8023,23.437500
8024,23.437500
8025,23.437500
8026,27.343750
8027,27.343750
8028,27.343750
8029,27.343750
8030,31.250000
8031,31.250000
8032,31.250000
8033,31.250000
8034,31.250000
8035,31.250000
8036,35.156250
8037,35.156250
8038,35.156250
8039,35.156250
8040,35.156250
8041,39.062500
8042,39.062500
8043,39.062500
8044,39.062500
8045,42.968750
8046,42.968750
8047,42.968750
8048,42.968750
8049,42.968750
8050,42.968750
8051,46.875000
8052,46.875000
8053,46.875000
8054,46.875000
8055,50.781250
8056,50.781250
8057,50.781250
8058,50.781250
8059,50.781250
8060,50.781250
8061,54.687500
8062,54.687500
8063,54.687500
8064,54.687500
8065,58.593750
8066,58.593750
8067,58.593750
8068,58.593750
8069,58.593750
8070,58.593750
8071,62.500000
8072,62.500000
8073,62.500000
8074,62.500000
8075,62.500000
8076,62.500000
8077,66.406250
8078,66.406250
8079,66.406250
8080,66.406250
8081,66.406250
8082,66.406250
8083,70.312500
8084,70.312500
8085,70.312500
8086,70.312500
8087,70.312500
8088,70.312500
8089,74.218750
8090,74.218750
8091,74.218750
8092,74.218750
8093,74.218750
8094,74.218750
8095,78.125000
8096,78.125000
8097,78.125000
8098,78.125000
8099,78.125000
8100,78.125000
8101,78.125000
8102,82.031250
8103,82.031250
8104,82.031250
8105,82.031250
8106,82.031250
8107,82.031250
8108,85.937500
8109,85.937500
8110,85.937500
8111,85.937500
8112,85.937500
8113,85.937500
8114,85.937500
8115,85.937500
8116,89.843750
8117,89.843750
8118,89.843750
8119,89.843750
8120,89.843750
8121,89.843750
8122,89.843750
8123,93.750000
8124,93.750000
8125,93.750000
8126,93.750000
8127,93.750000
8128,93.750000
8129,93.750000
8130,93.750000
8131,97.656250
8132,97.656250
8133,97.656250
8134,97.656250
8135,97.656250
8136,97.656250
8137,97.656250
8138,101.562500
8139,101.562500
8140,97.656250
8141,101.562500
8142,101.562500
8143,101.562500
8144,101.562500
8145,101.562500
8146,101.562500
8147,101.562500
8148,105.468750
8149,105.468750
8150,105.468750
8151,105.468750
8152,105.468750
8153,105.468750
8154,105.468750
8155,105.468750
8156,105.468750
8157,105.468750
8158,109.375000
8159,109.375000
8160,109.375000
8161,109.375000
8162,109.375000
8163,109.375000
8164,109.375000
8165,109.375000
8166,109.375000
8167,109.375000
8168,109.375000
8169,109.375000
8170,109.375000
8171,113.281250
8172,113.281250
8173,113.281250
8174,113.281250
8175,113.281250
8176,113.281250
8177,113.281250
8178,113.281250
8179,113.281250
8180,113.281250
8181,113.281250
8182,113.281250
8183,113.281250
8184,117.187500
8185,117.187500
8186,117.187500
8187,117.187500
8188,117.187500
8189,117.187500
8190,117.187500
8191,117.187500
8192,117.187500
8193,117.187500
8194,117.187500
8195,117.187500
8196,117.187500
8197,117.187500
8198,117.187500
8199,117.187500
8200,117.187500
8201,117.187500
8202,117.187500
8203,117.187500
8204,117.187500
8205,121.093750
8206,121.093750
8207,121.093750
8208,121.093750
8209,121.093750
8210,121.093750
8211,121.093750
8212,121.093750
8213,121.093750
8214,121.093750
8215,121.093750
8216,121.093750
8217,121.093750
8218,121.093750
8219,121.093750
8220,121.093750
8221,121.093750
8222,121.093750
8223,121.093750
8224,121.093750
8225,121.093750
8226,121.093750
8227,121.093750
8228,121.093750
8229,121.093750
8230,121.093750
8231,121.093750
8232,121.093750
8233,121.093750
8234,121.093750
8235,121.093750
8236,121.093750
8237,121.093750
8238,121.093750
8239,121.093750
8240,121.093750
8241,121.093750
8242,121.093750
8243,121.093750
8244,121.093750
8245,121.093750
8246,121.093750
8247,121.093750
8248,121.093750
8249,121.093750
8250,121.093750
8251,121.093750
8252,121.093750
8253,121.093750
8254,121.093750
8255,121.093750
8256,121.093750
8257,121.093750
8258,121.093750
8259,121.093750
8260,121.093750
8261,121.093750
8262,121.093750
8263,121.093750
8264,121.093750
8265,121.093750
8266,121.093750
8267,121.093750
8268,121.093750
8269,121.093750
8270,121.093750
8271,121.093750
8272,117.187500
8273,121.093750
8274,117.187500
8275,121.093750
8276,117.187500
8277,117.187500
8278,121.093750
8279,117.187500
8280,117.187500
8281,117.187500
8282,117.187500
8283,117.187500
8284,117.187500
8285,117.187500
8286,117.187500
8287,117.187500
8288,117.187500
8289,117.187500
8290,117.187500
8291,117.187500
8292,117.187500
8293,117.187500
8294,113.281250
8295,113.281250
8296,113.281250
8297,113.281250
8298,113.281250
8299,113.281250
8300,113.281250
8301,113.281250
8302,113.281250
8303,113.281250
8304,113.281250
8305,113.281250
8306,113.281250
8307,113.281250
8308,109.375000
8309,109.375000
8310,109.375000
8311,109.375000
8312,109.375000
8313,109.375000
8314,109.375000
8315,109.375000
8316,109.375000
8317,109.375000
8318,105.468750
8319,105.468750
8320,105.468750
8321,105.468750
8322,105.468750
8323,105.468750
8324,105.468750
8325,105.468750
8326,105.468750
8327,105.468750
8328,101.562500
8329,101.562500
8330,101.562500
8331,101.562500
8332,101.562500
8333,101.562500
8334,101.562500
8335,101.562500
8336,101.562500
8337,101.562500
8338,97.656250
8339,97.656250
8340,97.656250
8341,97.656250
8342,97.656250
8343,97.656250
8344,97.656250
8345,93.750000
8346,93.750000
8347,93.750000
8348,93.750000
8349,93.750000
8350,93.750000
8351,93.750000
8352,93.750000
8353,93.750000
8354,89.843750
8355,89.843750
8356,89.843750
8357,89.843750
8358,89.843750
8359,89.843750
8360,85.937500
8361,85.937500
8362,85.937500
8363,85.937500
8364,85.937500
8365,85.937500
8366,85.937500
8367,85.937500
8368,82.031250
8369,82.031250
8370,82.031250
8371,82.031250
8372,82.031250
8373,82.031250
8374,82.031250
8375,78.125000
8376,78.125000
8377,78.125000
8378,78.125000
8379,78.125000
8380,78.125000
8381,74.218750
8382,74.218750
8383,74.218750
8384,74.218750
8385,74.218750
8386,74.218750
8387,70.312500
8388,70.312500
8389,70.312500
8390,70.312500
8391,70.312500
8392,66.406250
8393,66.406250
8394,66.406250
8395,66.406250
8396,66.406250
8397,66.406250
8398,62.500000
8399,62.500000
8400,62.500000
8401,62.500000
8402,62.500000
8403,62.500000
8404,58.593750
8405,58.593750
8406,58.593750
8407,58.593750
8408,54.687500
8409,54.687500
8410,54.687500
8411,54.687500
8412,54.687500
8413,54.687500
8414,54.687500
8415,50.781250
8416,50.781250
8417,50.781250
8418,50.781250
8419,46.875000
8420,46.875000
8421,46.875000
8422,46.875000
8423,46.875000
8424,42.968750
8425,42.968750
8426,42.968750
8427,42.968750
8428,42.968750
8429,39.062500
8430,39.062500
8431,39.062500
8432,39.062500
8433,39.062500
8434,35.156250
8435,35.156250
8436,35.156250
8437,35.156250
8438,31.250000
8439,31.250000
8440,31.250000
8441,31.250000
8442,31.250000
8443,27.343750
8444,27.343750
8445,27.343750
8446,27.343750
8447,23.437500
8448,23.437500
8449,23.437500
8450,23.437500
8451,23.437500
8452,19.531250
8453,19.531250
8454,19.531250
8455,19.531250
8456,15.625000
8457,15.625000
8458,15.625000
8459,15.625000
8460,11.718750
8461,11.718750
8462,11.718750
8463,11.718750
8464,11.718750
8465,7.812500
8466,7.812500
8467,7.812500
8468,7.812500
8469,3.906250
8470,3.906250
8471,3.906250
8472,3.906250
8473,0.000000
8474,0.000000
8475,0.000000
8476,0.000000
8477,0.000000
8478,-3.906250
8479,-3.906250
8480,-3.906250
8481,-7.812500
8482,-7.812500
8483,-7.812500
8484,-7.812500
8485,-7.812500
8486,-11.718750
8487,-11.718750
8488,-11.718750
8489,-11.718750
8490,-15.625000
8491,-15.625000
8492,-15.625000
8493,-15.625000
8494,-15.625000
8495,-19.531250
8496,-19.531250
8497,-19.531250
8498,-19.531250
8499,-23.437500
8500,-23.437500
8501,-23.437500
8502,-23.437500
8503,-27.343750
8504,-27.343750
8505,-27.343750
8506,-27.343750
8507,-31.250000
8508,-31.250000
8509,-31.250000
8510,-31.250000
8511,-31.250000
8512,-35.156250
8513,-35.156250
8514,-35.156250
8515,-35.156250
8516,-39.062500
8517,-39.062500
8518,-39.062500
8519,-42.968750
8520,-42.968750
8521,-42.968750
8522,-42.968750
8523,-42.968750
8524,-46.875000
8525,-46.875000
8526,-46.875000
8527,-46.875000
8528,-50.781250
8529,-50.781250
8530,-50.781250
8531,-50.781250
8532,-54.687500
8533,-54.687500
8534,-54.687500
8535,-54.687500
8536,-58.593750
8537,-58.593750
8538,-58.593750
8539,-58.593750
8540,-58.593750
8541,-62.500000
8542,-62.500000
8543,-62.500000
8544,-66.406250
8545,-66.406250
8546,-66.406250
8547,-66.406250
8548,-66.406250
8549,-70.312500
8550,-70.312500
8551,-70.312500
8552,-70.312500
8553,-70.312500
8554,-74.218750
8555,-74.218750
8556,-74.218750
8557,-74.218750
8558,-78.125000
8559,-78.125000
8560,-78.125000
8561,-78.125000
8562,-78.125000
8563,-82.031250
8564,-82.031250
8565,-82.031250
8566,-82.031250
8567,-85.937500
8568,-85.937500
8569,-85.937500
8570,-85.937500
8571,-89.843750
8572,-89.843750
8573,-89.843750
8574,-89.843750
8575,-93.750000
8576,-93.750000
8577,-93.750000
8578,-93.750000
8579,-93.750000
8580,-97.656250
8581,-97.656250
8582,-97.656250
8583,-97.656250
8584,-97.656250
8585,-97.656250
8586,-101.562500
8587,-101.562500
8588,-101.562500
8589,-101.562500
8590,-105.468750
8591,-105.468750
8592,-105.468750
8593,-105.468750
8594,-109.375000
8595,-109.375000
8596,-109.375000
8597,-109.375000
8598,-109.375000
8599,-109.375000
8600,-113.281250
8601,-113.281250
8602,-113.281250
8603,-113.281250
8604,-113.281250
8605,-113.281250
8606,-117.187500
8607,-117.187500
8608,-117.187500
8609,-117.187500
8610,-121.093750
8611,-121.093750
8612,-121.093750
8613,-121.093750
8614,-121.093750
8615,-121.093750
8616,-125.000000
8617,-125.000000
8618,-125.000000
8619,-125.000000
8620,-125.000000
8621,-125.000000
8622,-128.906250
8623,-125.000000
8624,-128.906250
8625,-128.906250
8626,-128.906250
8627,-132.812500
8628,-132.812500
8629,-132.812500
8630,-132.812500
8631,-132.812500
8632,-132.812500
8633,-132.812500
8634,-136.718750
8635,-136.718750
8636,-136.718750
8637,-136.718750
8638,-136.718750
8639,-136.718750
8640,-136.718750
8641,-140.625000
8642,-140.625000
8643,-140.625000
8644,-140.625000
8645,-140.625000
8646,-140.625000
8647,-140.625000
8648,-144.531250
8649,-144.531250
8650,-144.531250
8651,-144.531250
8652,-144.531250
8653,-144.531250
8654,-144.531250
8655,-144.531250
8656,-144.531250
8657,-148.437500
8658,-148.437500
8659,-148.437500
8660,-148.437500
8661,-148.437500
8662,-148.437500
8663,-148.437500
8664,-148.437500
8665,-152.343750
8666,-152.343750
8667,-152.343750
8668,-152.343750
8669,-152.343750
8670,-152.343750
8671,-152.343750
8672,-152.343750
8673,-152.343750
8674,-152.343750
8675,-156.250000
8676,-156.250000
8677,-156.250000
8678,-156.250000
8679,-156.250000
8680,-156.250000
8681,-156.250000
8682,-156.250000
8683,-156.250000
8684,-156.250000
8685,-156.250000
8686,-156.250000
8687,-156.250000
8688,-156.250000
8689,-160.156250
8690,-160.156250
8691,-160.156250
8692,-160.156250
8693,-160.156250
8694,-160.156250
8695,-160.156250
8696,-160.156250
8697,-160.156250
8698,-160.156250
8699,-160.156250
8700,-160.156250
8701,-160.156250
8702,-160.156250
8703,-160.156250
8704,-160.156250
8705,-160.156250
8706,-164.062500
8707,-164.062500
8708,-164.062500
8709,-164.062500
8710,-164.062500
8711,-164.062500
8712,-164.062500
8713,-164.062500
8714,-164.062500
8715,-164.062500
8716,-164.062500
8717,-164.062500
8718,-164.062500
8719,-164.062500
8720,-164.062500
8721,-164.062500
8722,-164.062500
8723,-164.062500
8724,-164.062500
8725,-164.062500
8726,-164.062500
8727,-164.062500
8728,-164.062500
8729,-164.062500
8730,-164.062500
8731,-164.062500
8732,-164.062500
8733,-164.062500
8734,-164.062500
8735,-164.062500
8736,-164.062500
8737,-164.062500
8738,-164.062500
8739,-164.062500
8740,-164.062500
8741,-164.062500
8742,-164.062500
8743,-164.062500
8744,-164.062500
8745,-164.062500
8746,-164.062500
8747,-164.062500
8748,-164.062500
8749,-164.062500
8750,-164.062500
8751,-164.062500
8752,-164.062500
8753,-164.062500
8754,-164.062500
8755,-164.062500
8756,-164.062500
8757,-160.156250
8758,-160.156250
8759,-160.156250
8760,-160.156250
8761,-160.156250
8762,-160.156250
8763,-160.156250
8764,-160.156250
8765,-160.156250
8766,-160.156250
8767,-160.156250
8768,-160.156250
8769,-160.156250
8770,-160.156250
8771,-160.156250
8772,-160.156250
8773,-156.250000
8774,-156.250000
8775,-156.250000
8776,-156.250000
8777,-156.250000
8778,-156.250000
8779,-156.250000
8780,-156.250000
8781,-156.250000
8782,-156.250000
8783,-156.250000
8784,-152.343750
8785,-152.343750
8786,-152.343750
8787,-152.343750
8788,-152.343750
8789,-152.343750
8790,-152.343750
8791,-152.343750
8792,-152.343750
8793,-152.343750
8794,-148.437500
8795,-148.437500
8796,-148.437500
8797,-148.437500
8798,-148.437500
8799,-148.437500
8800,-148.437500
8801,-148.437500
8802,-148.437500
8803,-148.437500
8804,-144.531250
8805,-144.531250
8806,-144.531250
8807,-144.531250
8808,-144.531250
8809,-144.531250
8810,-144.531250
8811,-144.531250
8812,-140.625000
8813,-140.625000
8814,-140.625000
8815,-140.625000
8816,-140.625000
8817,-140.625000
8818,-140.625000
8819,-136.718750
8820,-136.718750
8821,-136.718750
8822,-136.718750
8823,-136.718750
8824,-136.718750
8825,-136.718750
8826,-132.812500
8827,-132.812500
8828,-132.812500
8829,-132.812500
8830,-132.812500
8831,-132.812500
8832,-132.812500
8833,-128.906250
8834,-128.906250
8835,-128.906250
8836,-128.906250
8837,-128.906250
8838,-125.000000
8839,-125.000000
8840,-125.000000
8841,-125.000000
8842,-125.000000
8843,-125.000000
8844,-121.093750
8845,-121.093750
8846,-121.093750
8847,-121.093750
8848,-121.093750
8849,-121.093750
8850,-121.093750
8851,-117.187500
8852,-117.187500
8853,-117.187500
8854,-117.187500
8855,-113.281250
8856,-113.281250
8857,-113.281250
8858,-113.281250
8859,-113.281250
8860,-113.281250
8861,-109.375000
8862,-109.375000
8863,-109.375000
8864,-109.375000
8865,-109.375000
8866,-109.375000
8867,-105.468750
8868,-105.468750
8869,-105.468750
8870,-105.468750
8871,-101.562500
8872,-101.562500
8873,-101.562500
8874,-101.562500
8875,-101.562500
8876,-97.656250
8877,-97.656250
8878,-97.656250
8879,-97.656250
8880,-97.656250
8881,-93.750000
8882,-93.750000
8883,-93.750000
8884,-93.750000
8885,-93.750000
8886,-89.843750
8887,-89.843750
8888,-89.843750
8889,-89.843750
8890,-85.937500
8891,-85.937500
8892,-85.937500
8893,-85.937500
8894,-85.937500
8895,-82.031250
8896,-82.031250
8897,-82.031250
8898,-82.031250
8899,-78.125000
8900,-78.125000
8901,-78.125000
8902,-78.125000
8903,-74.218750
8904,-74.218750
8905,-74.218750
8906,-74.218750
8907,-74.218750
8908,-74.218750
8909,-70.312500
8910,-70.312500
8911,-70.312500
8912,-66.406250
8913,-66.406250
8914,-66.406250
8915,-66.406250
8916,-66.406250
8917,-62.500000
8918,-62.500000
8919,-62.500000
8920,-62.500000
8921,-58.593750
8922,-58.593750
8923,-58.593750
8924,-58.593750
8925,-58.593750
8926,-54.687500
8927,-54.687500
8928,-54.687500
8929,-54.687500
8930,-50.781250
8931,-50.781250
8932,-50.781250
8933,-50.781250
8934,-46.875000
8935,-46.875000
8936,-46.875000
8937,-46.875000
8938,-42.968750
8939,-42.968750
8940,-42.968750
8941,-42.968750
8942,-39.062500
8943,-39.062500
8944,-39.062500
8945,-39.062500
8946,-35.156250
8947,-35.156250
8948,-35.156250
8949,-35.156250
8950,-35.156250
8951,-31.250000
8952,-31.250000
8953,-31.250000
8954,-27.343750
8955,-27.343750
8956,-27.343750
8957,-27.343750
8958,-27.343750
8959,-23.437500
8960,-23.437500
8961,-23.437500
8962,-23.437500
8963,-19.531250
8964,-19.531250
8965,-19.531250
8966,-19.531250
8967,-19.531250
8968,-15.625000
8969,-15.625000
8970,-15.625000
8971,-15.625000
8972,-11.718750
8973,-11.718750
8974,-11.718750
8975,-11.718750
8976,-7.812500
8977,-7.812500
8978,-7.812500
8979,-7.812500
8980,-3.906250
8981,-3.906250
8982,-3.906250
8983,-3.906250
8984,0.000000
8985,0.000000
8986,0.000000
8987,0.000000
8988,0.000000
8989,3.906250
8990,3.906250
8991,3.906250
8992,3.906250
8993,7.812500
8994,7.812500
8995,7.812500
8996,7.812500
8997,7.812500
8998,11.718750
8999,11.718750
9000,11.718750
9001,11.718750
9002,15.625000
9003,15.625000
9004,15.625000
9005,15.625000
9006,15.625000
9007,19.531250
9008,19.531250
9009,19.531250
9010,19.531250
9011,23.437500
9012,23.437500
9013,23.437500
9014,23.437500
9015,23.437500
9016,27.343750
9017,27.343750
9018,27.343750
9019,27.343750
9020,31.250000
9021,31.250000
9022,31.250000
9023,31.250000
9024,31.250000
9025,35.156250
9026,35.156250
9027,35.156250
9028,35.156250
9029,35.156250
9030,35.156250
9031,39.062500
9032,39.062500
9033,39.062500
9034,39.062500
9035,42.968750
9036,42.968750
9037,42.968750
9038,42.968750
9039,46.875000
9040,46.875000
9041,46.875000
9042,46.875000
9043,50.781250
9044,50.781250
9045,50.781250
9046,50.781250
9047,50.781250
9048,50.781250
9049,54.687500
9050,54.687500
9051,54.687500
9052,54.687500
9053,54.687500
9054,54.687500
9055,58.593750
9056,58.593750
9057,58.593750
9058,58.593750
9059,58.593750
9060,58.593750
9061,62.500000
9062,62.500000
9063,62.500000
9064,62.500000
9065,66.406250
9066,62.500000
9067,66.406250
9068,66.406250
9069,66.406250
9070,66.406250
9071,66.406250
9072,70.312500
9073,70.312500
9074,70.312500
9075,70.312500
9076,70.312500
9077,70.312500
9078,74.218750
9079,74.218750
9080,74.218750
9081,74.218750
9082,74.218750
9083,78.125000
9084,78.125000
9085,78.125000
9086,78.125000
9087,78.125000
9088,78.125000
9089,78.125000
9090,82.031250
9091,82.031250
9092,82.031250
9093,82.031250
9094,82.031250
9095,82.031250
9096,82.031250
9097,82.031250
9098,85.937500
9099,85.937500
9100,85.937500
9101,85.937500
9102,85.937500
9103,89.843750
9104,89.843750
9105,89.843750
9106,89.843750
9107,89.843750
9108,89.843750
9109,89.843750
9110,89.843750
9111,89.843750
9112,93.750000
9113,93.750000
9114,93.750000
9115,93.750000
9116,93.750000
9117,93.750000
9118,93.750000
9119,93.750000
9120,97.656250
9121,97.656250
9122,97.656250
9123,97.656250
9124,97.656250
9125,97.656250
9126,97.656250
9127,97.656250
9128,101.562500
9129,101.562500
9130,101.562500
9131,101.562500
9132,101.562500
9133,101.562500
9134,101.562500
9135,101.562500
9136,101.562500
9137,105.468750
9138,105.468750
9139,105.468750
9140,105.468750
9141,105.468750
9142,105.468750
9143,105.468750
9144,109.375000
9145,105.468750
9146,105.468750
9147,109.375000
9148,109.375000
9149,109.375000
9150,109.375000
9151,109.375000
9152,109.375000
9153,109.375000
9154,109.375000
9155,109.375000
9156,109.375000
9157,109.375000
9158,109.375000
9159,113.281250
9160,113.281250
9161,113.281250
9162,113.281250
9163,113.281250
9164,113.281250
9165,113.281250
9166,113.281250
9167,113.281250
9168,113.281250
9169,113.281250
9170,113.281250
9171,117.187500
9172,113.281250
9173,117.187500
9174,113.281250
9175,113.281250
9176,113.281250
9177,117.187500
9178,117.187500
9179,117.187500
9180,117.187500
9181,117.187500
9182,117.187500
9183,117.187500
9184,117.187500
9185,117.187500
9186,117.187500
9187,117.187500
9188,117.187500
9189,117.187500
9190,117.187500
9191,117.187500
9192,117.187500
9193,117.187500
9194,117.187500
9195,121.093750
9196,121.093750
9197,121.093750
9198,121.093750
9199,121.093750
9200,121.093750
9201,121.093750
9202,121.093750
9203,121.093750
9204,121.093750
9205,121.093750
9206,121.093750
9207,121.093750
9208,121.093750
9209,121.093750
9210,121.093750
9211,121.093750
9212,121.093750
9213,121.093750
9214,121.093750
9215,121.093750
9216,121.093750
9217,117.187500
9218,125.000000
9219,121.093750
9220,121.093750
9221,121.093750
9222,121.093750
9223,121.093750
9224,121.093750
9225,121.093750
9226,121.093750
9227,121.093750
9228,121.093750
9229,121.093750
9230,121.093750
9231,121.093750
9232,121.093750
9233,121.093750
9234,121.093750
9235,121.093750
9236,121.093750
9237,121.093750
9238,121.093750
9239,121.093750
9240,121.093750
9241,121.093750
9242,121.093750
9243,121.093750
9244,121.093750
9245,121.093750
9246,121.093750
9247,121.093750
9248,121.093750
9249,121.093750
9250,121.093750
9251,121.093750
9252,121.093750
9253,121.093750
9254,121.093750
9255,121.093750
9256,121.093750
9257,121.093750
9258,121.093750
9259,121.093750
9260,121.093750
9261,121.093750
9262,117.187500
9263,117.187500
9264,117.187500
9265,117.187500
9266,117.187500
9267,117.187500
9268,117.187500
9269,117.187500
9270,117.187500
9271,117.187500
9272,117.187500
9273,117.187500
9274,117.187500
9275,117.187500
9276,117.187500
9277,113.281250
9278,117.187500
9279,117.187500
9280,113.281250
9281,117.187500
9282,113.281250
9283,113.281250
9284,113.281250
9285,113.281250
9286,113.281250
9287,113.281250
9288,113.281250
9289,113.281250
9290,113.281250
9291,113.281250
9292,113.281250
9293,113.281250
9294,109.375000
9295,109.375000
9296,109.375000
9297,109.375000
9298,109.375000
9299,109.375000
9300,109.375000
9301,109.375000
9302,109.375000
9303,109.375000
9304,105.468750
9305,109.375000
9306,105.468750
9307,105.468750
9308,105.468750
9309,105.468750
9310,105.468750
9311,105.468750
9312,105.468750
9313,105.468750
9314,105.468750
9315,101.562500
9316,101.562500
9317,101.562500
9318,101.562500
9319,101.562500
9320,101.562500
9321,101.562500
9322,101.562500
9323,101.562500
9324,101.562500
9325,101.562500
9326,97.656250
9327,97.656250
9328,97.656250
9329,97.656250
9330,97.656250
9331,97.656250
9332,97.656250
9333,97.656250
9334,93.750000
9335,93.750000
9336,93.750000
9337,93.750000
9338,93.750000
9339,93.750000
9340,93.750000
9341,93.750000
9342,89.843750
9343,89.843750
9344,89.843750
9345,89.843750
9346,89.843750
9347,89.843750
9348,89.843750
9349,89.843750
9350,85.937500
9351,85.937500
9352,85.937500
9353,85.937500
9354,85.937500
9355,85.937500
9356,85.937500
9357,82.031250
9358,82.031250
9359,82.031250
9360,82.031250
9361,82.031250
9362,82.031250
9363,78.125000
9364,78.125000
9365,78.125000
9366,78.125000
9367,78.125000
9368,78.125000
9369,74.218750
9370,74.218750
9371,74.218750
9372,74.218750
9373,74.218750
9374,74.218750
9375,74.218750
9376,70.312500
9377,70.312500
9378,70.312500
9379,70.312500
9380,70.312500
9381,70.312500
9382,66.406250
9383,66.406250
9384,66.406250
9385,66.406250
9386,66.406250
9387,66.406250
9388,62.500000
9389,62.500000
9390,62.500000
9391,62.500000
9392,58.593750
9393,58.593750
9394,58.593750
9395,58.593750
9396,58.593750
9397,58.593750
9398,54.687500
9399,54.687500
9400,54.687500
9401,54.687500
9402,54.687500
9403,50.781250
9404,50.781250
9405,50.781250
9406,50.781250
9407,50.781250
9408,46.875000
9409,46.875000
9410,46.875000
9411,46.875000
9412,42.968750
9413,42.968750
9414,42.968750
9415,42.968750
9416,42.968750
9417,42.968750
9418,39.062500
9419,39.062500
9420,39.062500
9421,39.062500
9422,35.156250
9423,39.062500
9424,35.156250
9425,35.156250
9426,35.156250
9427,35.156250
9428,31.250000
9429,31.250000
9430,31.250000
9431,31.250000
9432,27.343750
9433,27.343750
9434,27.343750
9435,27.343750
9436,23.437500
9437,23.437500
9438,23.437500
9439,23.437500
9440,23.437500
9441,19.531250
9442,19.531250
9443,19.531250
9444,19.531250
9445,19.531250
9446,15.625000
9447,15.625000
9448,15.625000
9449,15.625000
9450,11.718750
9451,11.718750
9452,11.718750
9453,11.718750
9454,11.718750
9455,7.812500
9456,7.812500
9457,7.812500
9458,7.812500
9459,3.906250
9460,3.906250
9461,3.906250
9462,3.906250
9463,0.000000
9464,0.000000
9465,0.000000
9466,0.000000
9467,0.000000
9468,-3.906250
9469,-3.906250
9470,-3.906250
9471,-7.812500
9472,-7.812500
9473,-7.812500
9474,-7.812500
9475,-11.718750
9476,-11.718750
9477,-11.718750
9478,-15.625000
9479,-11.718750
9480,-11.718750
9481,-15.625000
9482,-15.625000
9483,-15.625000
9484,-19.531250
9485,-19.531250
9486,-19.531250
9487,-19.531250
9488,-23.437500
9489,-23.437500
9490,-23.437500
9491,-23.437500
9492,-27.343750
9493,-27.343750
9494,-27.343750
9495,-27.343750
9496,-31.250000
9497,-31.250000
9498,-31.250000
9499,-31.250000
9500,-31.250000
9501,-35.156250
9502,-35.156250
9503,-35.156250
9504,-39.062500
9505,-39.062500
9506,-39.062500
9507,-39.062500
9508,-39.062500
9509,-42.968750
9510,-42.968750
9511,-42.968750
9512,-46.875000
9513,-46.875000
9514,-46.875000
9515,-46.875000
9516,-46.875000
9517,-46.875000
9518,-50.781250
9519,-50.781250
9520,-50.781250
9521,-50.781250
9522,-54.687500
9523,-54.687500
9524,-54.687500
9525,-54.687500
9526,-58.593750
9527,-58.593750
9528,-58.593750
9529,-58.593750
9530,-62.500000
9531,-62.500000
9532,-62.500000
9533,-62.500000
9534,-66.406250
9535,-66.406250
9536,-66.406250
9537,-66.406250
9538,-66.406250
9539,-66.406250
9540,-70.312500
9541,-70.312500
9542,-74.218750
9543,-74.218750
9544,-74.218750
9545,-74.218750
9546,-74.218750
9547,-74.218750
9548,-78.125000
9549,-78.125000
9550,-78.125000
9551,-78.125000
9552,-82.031250
9553,-82.031250
9554,-82.031250
9555,-82.031250
9556,-82.031250
9557,-85.937500
9558,-85.937500
9559,-85.937500
9560,-85.937500
9561,-89.843750
9562,-89.843750
9563,-89.843750
9564,-89.843750
9565,-89.843750
9566,-93.750000
9567,-93.750000
9568,-93.750000
9569,-93.750000
9570,-97.656250
9571,-97.656250
9572,-97.656250
9573,-97.656250
9574,-97.656250
9575,-101.562500
9576,-101.562500
9577,-101.562500
9578,-101.562500
9579,-101.562500
9580,-105.468750
9581,-105.468750
9582,-105.468750
9583,-105.468750
9584,-105.468750
9585,-109.375000
9586,-109.375000
9587,-109.375000
9588,-109.375000
9589,-109.375000
9590,-113.281250
9591,-113.281250
9592,-113.281250
9593,-113.281250
9594,-113.281250
9595,-113.281250
9596,-117.187500
9597,-117.187500
9598,-117.187500
9599,-117.187500
9600,-121.093750
9601,-121.093750
9602,-121.093750
9603,-121.093750
9604,-121.093750
9605,-121.093750
9606,-121.093750
9607,-125.000000
9608,-125.000000
9609,-125.000000
9610,-125.000000
9611,-125.000000
9612,-128.906250
9613,-125.000000
9614,-128.906250
9615,-128.906250
9616,-128.906250
9617,-132.812500
9618,-132.812500
9619,-132.812500
9620,-132.812500
9621,-132.812500
9622,-132.812500
9623,-132.812500
9624,-136.718750
9625,-132.812500
9626,-136.718750
9627,-136.718750
9628,-136.718750
9629,-136.718750
9630,-136.718750
9631,-140.625000
9632,-140.625000
9633,-140.625000
9634,-140.625000
9635,-140.625000
9636,-140.625000
9637,-140.625000
9638,-140.625000
9639,-144.531250
9640,-144.531250
9641,-144.531250
9642,-144.531250
9643,-144.531250
9644,-144.531250
9645,-144.531250
9646,-148.437500
9647,-144.531250
9648,-148.437500
9649,-148.437500
9650,-148.437500
9651,-148.437500
9652,-148.437500
9653,-148.437500
9654,-152.343750
9655,-152.343750
9656,-152.343750
9657,-152.343750
9658,-152.343750
9659,-152.343750
9660,-152.343750
9661,-152.343750
9662,-152.343750
9663,-152.343750
9664,-152.343750
9665,-152.343750
9666,-156.250000
9667,-156.250000
9668,-156.250000
9669,-156.250000
9670,-156.250000
9671,-156.250000
9672,-156.250000
9673,-156.250000
9674,-156.250000
9675,-156.250000
9676,-156.250000
9677,-156.250000
9678,-156.250000
9679,-156.250000
9680,-160.156250
9681,-160.156250
9682,-160.156250
9683,-160.156250
9684,-160.156250
9685,-160.156250
9686,-160.156250
9687,-160.156250
9688,-160.156250
9689,-160.156250
9690,-160.156250
9691,-160.156250
9692,-160.156250
9693,-160.156250
9694,-160.156250
9695,-160.156250
9696,-160.156250
9697,-160.156250
9698,-160.156250
9699,-164.062500
9700,-164.062500
9701,-164.062500
9702,-164.062500
9703,-164.062500
9704,-164.062500
9705,-164.062500
9706,-164.062500
9707,-164.062500
9708,-164.062500
9709,-164.062500
9710,-164.062500
9711,-164.062500
9712,-164.062500
9713,-164.062500
9714,-164.062500
9715,-164.062500
9716,-164.062500
9717,-164.062500
9718,-164.062500
9719,-164.062500
9720,-164.062500
9721,-164.062500
9722,-164.062500
9723,-164.062500
9724,-164.062500
9725,-164.062500
9726,-164.062500
9727,-164.062500
9728,-164.062500
9729,-164.062500
9730,-164.062500
9731,-164.062500
9732,-164.062500
9733,-164.062500
9734,-164.062500
9735,-164.062500
9736,-164.062500
9737,-164.062500
9738,-164.062500
9739,-164.062500
9740,-164.062500
9741,-164.062500
9742,-164.062500
9743,-160.156250
9744,-160.156250
9745,-160.156250
9746,-160.156250
9747,-160.156250
9748,-160.156250
9749,-160.156250
9750,-160.156250
9751,-160.156250
9752,-160.156250
9753,-160.156250
9754,-160.156250
9755,-160.156250
9756,-160.156250
9757,-160.156250
9758,-160.156250
9759,-160.156250
9760,-160.156250
9761,-160.156250
9762,-156.250000
9763,-156.250000
9764,-156.250000
9765,-156.250000
9766,-156.250000
9767,-156.250000
9768,-156.250000
9769,-156.250000
9770,-156.250000
9771,-156.250000
9772,-156.250000
9773,-156.250000
9774,-152.343750
9775,-152.343750
9776,-152.343750
9777,-152.343750
9778,-152.343750
9779,-152.343750
9780,-152.343750
9781,-152.343750
9782,-152.343750
9783,-152.343750
9784,-148.437500
9785,-148.437500
9786,-148.437500
9787,-148.437500
9788,-148.437500
9789,-148.437500
9790,-148.437500
9791,-148.437500
9792,-148.437500
9793,-148.437500
9794,-144.531250
9795,-144.531250
9796,-144.531250
9797,-144.531250
9798,-144.531250
9799,-144.531250
9800,-144.531250
9801,-140.625000
9802,-140.625000
9803,-140.625000
9804,-140.625000
9805,-140.625000
9806,-140.625000
9807,-140.625000
9808,-140.625000
9809,-136.718750
9810,-136.718750
9811,-136.718750
9812,-136.718750
9813,-136.718750
9814,-132.812500
9815,-132.812500
9816,-132.812500
9817,-132.812500
9818,-132.812500
9819,-132.812500
9820,-132.812500
9821,-132.812500
9822,-132.812500
9823,-128.906250
9824,-128.906250
9825,-128.906250
9826,-128.906250
9827,-125.000000
9828,-125.000000
9829,-125.000000
9830,-125.000000
9831,-125.000000
9832,-125.000000
9833,-125.000000
9834,-121.093750
9835,-121.093750
9836,-121.093750
9837,-121.093750
9838,-121.093750
9839,-117.187500
9840,-117.187500
9841,-117.187500
9842,-117.187500
9843,-117.187500
9844,-117.187500
9845,-113.281250
9846,-113.281250
9847,-113.281250
9848,-113.281250
9849,-113.281250
9850,-109.375000
9851,-109.375000
9852,-109.375000
9853,-109.375000
9854,-109.375000
9855,-105.468750
9856,-105.468750
9857,-105.468750
9858,-105.468750
9859,-105.468750
9860,-105.468750
9861,-101.562500
9862,-101.562500
9863,-101.562500
9864,-101.562500
9865,-97.656250
9866,-97.656250
9867,-97.656250
9868,-97.656250
9869,-97.656250
9870,-97.656250
9871,-93.750000
9872,-93.750000
9873,-93.750000
9874,-93.750000
9875,-89.843750
9876,-89.843750
9877,-89.843750
9878,-89.843750
9879,-85.937500
9880,-85.937500
9881,-85.937500
9882,-85.937500
9883,-85.937500
9884,-85.937500
9885,-82.031250
9886,-82.031250
9887,-82.031250
9888,-82.031250
9889,-78.125000
9890,-78.125000
9891,-78.125000
9892,-78.125000
9893,-78.125000
9894,-78.125000
9895,-74.218750
9896,-74.218750
9897,-74.218750
9898,-70.312500
9899,-70.312500
9900,-70.312500
9901,-70.312500
9902,-66.406250
9903,-66.406250
9904,-66.406250
9905,-66.406250
9906,-66.406250
9907,-62.500000
9908,-62.500000
9909,-62.500000
9910,-62.500000
9911,-58.593750
9912,-58.593750
9913,-58.593750
9914,-58.593750
9915,-54.687500
9916,-54.687500
9917,-54.687500
9918,-54.687500
9919,-50.781250
9920,-50.781250
9921,-50.781250
9922,-50.781250
9923,-50.781250
9924,-50.781250
9925,-46.875000
9926,-46.875000
9927,-46.875000
9928,-42.968750
9929,-42.968750
9930,-42.968750
9931,-42.968750
9932,-42.968750
9933,-39.062500
9934,-39.062500
9935,-39.062500
9936,-39.062500
9937,-35.156250
9938,-35.156250
9939,-35.156250
9940,-35.156250
9941,-31.250000
9942,-31.250000
9943,-31.250000
9944,-31.250000
9945,-27.343750
9946,-27.343750
9947,-27.343750
9948,-27.343750
9949,-23.437500
9950,-23.437500
9951,-23.437500
9952,-23.437500
9953,-19.531250
9954,-19.531250
9955,-19.531250
9956,-19.531250
9957,-15.625000
9958,-15.625000
9959,-15.625000
9960,-15.625000
9961,-11.718750
9962,-11.718750
9963,-11.718750
9964,-11.718750
9965,-11.718750
9966,-7.812500
9967,-7.812500
9968,-7.812500
9969,-7.812500
9970,-3.906250
9971,-3.906250
9972,-3.906250
9973,-3.906250
9974,-3.906250
9975,0.000000
9976,0.000000
9977,0.000000
9978,0.000000
9979,3.906250
9980,3.906250
9981,3.906250
9982,3.906250
9983,3.906250
9984,7.812500
9985,7.812500
9986,7.812500
9987,11.718750
9988,11.718750
9989,11.718750
9990,11.718750
9991,11.718750
9992,11.718750
9993,15.625000
9994,15.625000
9995,15.625000
9996,19.531250
9997,19.531250
9998,19.531250
9999,19.531250
10000,19.531250
