Channel              :,CH1
Frequency            :,  ?
Period               :,  ?
PK-PK                :,35.16mV
Probe attenuation    :,1X
Voltage per ADC value:,0.244141mV
Time interval        :,1.00000us

index,CH1_Voltage(mV)
1,-7.812500
2,-7.812500
3,-7.812500
4,-7.812500
5,-7.812500
6,-7.812500
7,-7.812500
8,-7.812500
9,-7.812500
10,-7.812500
11,-7.812500
12,-7.812500
13,-7.812500
14,-7.812500
15,-7.812500
16,-7.812500
17,-7.812500
18,-7.812500
19,-7.812500
20,-7.812500
21,-7.812500
22,-7.812500
23,-7.812500
24,-7.812500
25,-7.812500
26,-7.812500
27,-7.812500
28,-3.906250
29,-3.906250
30,-3.906250
31,-3.906250
32,-3.906250
33,-3.906250
34,-3.906250
35,-7.812500
36,-3.906250
37,-7.812500
38,-3.906250
39,-3.906250
40,-3.906250
41,-3.906250
42,-3.906250
43,-3.906250
44,-3.906250
45,-3.906250
46,-3.906250
47,-3.906250
48,-3.906250
49,-3.906250
50,-3.906250
51,-3.906250
52,-3.906250
53,-3.906250
54,-3.906250
55,-3.906250
56,-3.906250
57,-3.906250
58,-3.906250
59,-3.906250
60,-3.906250
61,-3.906250
62,-3.906250
63,-3.906250
64,-3.906250
65,-3.906250
66,-3.906250
67,-3.906250
68,-3.906250
69,-3.906250
70,-3.906250
71,-3.906250
72,-3.906250
73,-3.906250
74,-3.906250
75,-3.906250
76,-3.906250
77,-3.906250
78,-3.906250
79,-3.906250
80,-3.906250
81,-3.906250
82,-3.906250
83,-3.906250
84,-3.906250
85,-3.906250
86,-3.906250
87,-3.906250
88,-3.906250
89,-3.906250
90,-3.906250
91,-3.906250
92,-3.906250
93,-3.906250
94,-3.906250
95,-3.906250
96,0.000000
97,-3.906250
98,0.000000
99,0.000000
100,-3.906250
101,-3.906250
102,-3.906250
103,-3.906250
104,-3.906250
105,0.000000
106,0.000000
107,0.000000
108,0.000000
109,0.000000
110,0.000000
111,0.000000
112,-3.906250
113,0.000000
114,-3.906250
115,-3.906250
116,0.000000
117,0.000000
118,0.000000
119,-3.906250
120,0.000000
121,0.000000
122,0.000000
123,0.000000
124,0.000000
125,0.000000
126,0.000000
127,0.000000
128,0.000000
129,0.000000
130,0.000000
131,0.000000
132,0.000000
133,0.000000
134,0.000000
135,-3.906250
136,0.000000
137,0.000000
138,0.000000
139,0.000000
140,-3.906250
141,0.000000
142,0.000000
143,0.000000
144,0.000000
145,0.000000
146,0.000000
147,0.000000
148,0.000000
149,0.000000
150,0.000000
151,0.000000
152,0.000000
153,0.000000
154,0.000000
155,0.000000
156,0.000000
157,0.000000
158,0.000000
159,0.000000
160,0.000000
161,0.000000
162,0.000000
163,0.000000
164,0.000000
165,0.000000
166,0.000000
167,0.000000
168,0.000000
169,0.000000
170,0.000000
171,0.000000
172,0.000000
173,0.000000
174,0.000000
175,0.000000
176,0.000000
177,0.000000
178,0.000000
179,0.000000
180,0.000000
181,0.000000
182,0.000000
183,0.000000
184,0.000000
185,0.000000
186,0.000000
187,0.000000
188,0.000000
189,0.000000
190,0.000000
191,0.000000
192,0.000000
193,0.000000
194,0.000000
195,0.000000
196,0.000000
197,0.000000
198,0.000000
199,0.000000
200,0.000000
201,0.000000
202,0.000000
203,0.000000
204,0.000000
205,0.000000
206,0.000000
207,0.000000
208,0.000000
209,0.000000
210,0.000000
211,0.000000
212,0.000000
213,0.000000
214,0.000000
215,0.000000
216,0.000000
217,0.000000
218,0.000000
219,0.000000
220,0.000000
221,0.000000
222,0.000000
223,0.000000
224,0.000000
225,0.000000
226,0.000000
227,0.000000
228,0.000000
229,0.000000
230,0.000000
231,0.000000
232,0.000000
233,0.000000
234,0.000000
235,0.000000
236,0.000000
237,0.000000
238,0.000000
239,0.000000
240,0.000000
241,0.000000
242,0.000000
243,0.000000
244,0.000000
245,0.000000
246,0.000000
247,0.000000
248,0.000000
249,0.000000
250,0.000000
251,0.000000
252,0.000000
253,0.000000
254,0.000000
255,0.000000
256,0.000000
257,0.000000
258,0.000000
259,0.000000
260,0.000000
261,0.000000
262,0.000000
263,0.000000
264,0.000000
265,0.000000
266,0.000000
267,-3.906250
268,0.000000
269,0.000000
270,0.000000
271,0.000000
272,0.000000
273,0.000000
274,0.000000
275,0.000000
276,0.000000
277,0.000000
278,-3.906250
279,0.000000
280,0.000000
281,0.000000
282,0.000000
283,0.000000
284,0.000000
285,0.000000
286,0.000000
287,0.000000
288,0.000000
289,0.000000
290,-3.906250
291,-3.906250
292,-3.906250
293,0.000000
294,0.000000
295,0.000000
296,0.000000
297,-3.906250
298,-3.906250
299,-3.906250
300,-3.906250
301,-3.906250
302,-3.906250
303,-3.906250
304,-3.906250
305,-3.906250
306,-3.906250
307,-3.906250
308,-7.812500
309,-3.906250
310,-3.906250
311,-3.906250
312,-3.906250
313,-3.906250
314,-3.906250
315,-3.906250
316,-3.906250
317,-3.906250
318,-3.906250
319,-3.906250
320,-3.906250
321,-3.906250
322,-3.906250
323,-3.906250
324,-3.906250
325,-3.906250
326,-3.906250
327,-3.906250
328,-3.906250
329,-3.906250
330,-3.906250
331,-3.906250
332,-3.906250
333,-3.906250
334,-3.906250
335,-3.906250
336,-3.906250
337,-3.906250
338,-3.906250
339,-3.906250
340,-3.906250
341,-3.906250
342,0.000000
343,-3.906250
344,-3.906250
345,-3.906250
346,-3.906250
347,-3.906250
348,-3.906250
349,-7.812500
350,-7.812500
351,-3.906250
352,-7.812500
353,-7.812500
354,-7.812500
355,-7.812500
356,-7.812500
357,-7.812500
358,-7.812500
359,-7.812500
360,-7.812500
361,-7.812500
362,-7.812500
363,-7.812500
364,-7.812500
365,-7.812500
366,-7.812500
367,-7.812500
368,-7.812500
369,-7.812500
370,-7.812500
371,-3.906250
372,-7.812500
373,-7.812500
374,-7.812500
375,-7.812500
376,-7.812500
377,-7.812500
378,-7.812500
379,-7.812500
380,-7.812500
381,-7.812500
382,-7.812500
383,-7.812500
384,-7.812500
385,-7.812500
386,-7.812500
387,-7.812500
388,-7.812500
389,-7.812500
390,-7.812500
391,-7.812500
392,-7.812500
393,-7.812500
394,-7.812500
395,-11.718750
396,-7.812500
397,-7.812500
398,-7.812500
399,-7.812500
400,-7.812500
401,-7.812500
402,-7.812500
403,-11.718750
404,-11.718750
405,-11.718750
406,-11.718750
407,-11.718750
408,-11.718750
409,-11.718750
410,-11.718750
411,-11.718750
412,-11.718750
413,-11.718750
414,-11.718750
415,-11.718750
416,-11.718750
417,-11.718750
418,-11.718750
419,-11.718750
420,-11.718750
421,-11.718750
422,-11.718750
423,-11.718750
424,-11.718750
425,-11.718750
426,-11.718750
427,-11.718750
428,-11.718750
429,-11.718750
430,-11.718750
431,-11.718750
432,-11.718750
433,-11.718750
434,-11.718750
435,-11.718750
436,-11.718750
437,-11.718750
438,-11.718750
439,-11.718750
440,-15.625000
441,-15.625000
442,-15.625000
443,-15.625000
444,-15.625000
445,-15.625000
446,-15.625000
447,-15.625000
448,-15.625000
449,-15.625000
450,-15.625000
451,-15.625000
452,-15.625000
453,-15.625000
454,-15.625000
455,-15.625000
456,-15.625000
457,-15.625000
458,-15.625000
459,-15.625000
460,-15.625000
461,-15.625000
462,-15.625000
463,-15.625000
464,-15.625000
465,-15.625000
466,-15.625000
467,-15.625000
468,-15.625000
469,-15.625000
470,-15.625000
471,-15.625000
472,-15.625000
473,-19.531250
474,-15.625000
475,-15.625000
476,-15.625000
477,-15.625000
478,-15.625000
479,-15.625000
480,-15.625000
481,-19.531250
482,-19.531250
483,-19.531250
484,-19.531250
485,-19.531250
486,-19.531250
487,-19.531250
488,-19.531250
489,-19.531250
490,-19.531250
491,-19.531250
492,-19.531250
493,-19.531250
494,-19.531250
495,-19.531250
496,-19.531250
497,-19.531250
498,-19.531250
499,-19.531250
500,-19.531250
501,-19.531250
502,-19.531250
503,-19.531250
504,-19.531250
505,-19.531250
506,-19.531250
507,-19.531250
508,-19.531250
509,-19.531250
510,-19.531250
511,-19.531250
512,-19.531250
513,-19.531250
514,-19.531250
515,-19.531250
516,-19.531250
517,-19.531250
518,-19.531250
519,-19.531250
520,-19.531250
521,-19.531250
522,-19.531250
523,-19.531250
524,-19.531250
525,-19.531250
526,-19.531250
527,-23.437500
528,-23.437500
529,-23.437500
530,-23.437500
531,-23.437500
532,-23.437500
533,-23.437500
534,-23.437500
535,-23.437500
536,-23.437500
537,-23.437500
538,-23.437500
539,-23.437500
540,-23.437500
541,-23.437500
542,-23.437500
543,-23.437500
544,-23.437500
545,-23.437500
546,-23.437500
547,-23.437500
548,-23.437500
549,-23.437500
550,-23.437500
551,-23.437500
552,-23.437500
553,-23.437500
554,-23.437500
555,-23.437500
556,-23.437500
557,-23.437500
558,-23.437500
559,-23.437500
560,-23.437500
561,-23.437500
562,-23.437500
563,-23.437500
564,-23.437500
565,-23.437500
566,-23.437500
567,-23.437500
568,-23.437500
569,-23.437500
570,-23.437500
571,-23.437500
572,-23.437500
573,-23.437500
574,-23.437500
575,-23.437500
576,-23.437500
577,-23.437500
578,-23.437500
579,-23.437500
580,-27.343750
581,-27.343750
582,-27.343750
583,-23.437500
584,-23.437500
585,-23.437500
586,-23.437500
587,-23.437500
588,-23.437500
589,-23.437500
590,-27.343750
591,-27.343750
592,-27.343750
593,-27.343750
594,-27.343750
595,-27.343750
596,-23.437500
597,-23.437500
598,-23.437500
599,-27.343750
600,-27.343750
601,-27.343750
602,-27.343750
603,-27.343750
604,-27.343750
605,-27.343750
606,-27.343750
607,-27.343750
608,-27.343750
609,-27.343750
610,-27.343750
611,-27.343750
612,-27.343750
613,-27.343750
614,-27.343750
615,-27.343750
616,-27.343750
617,-27.343750
618,-27.343750
619,-27.343750
620,-27.343750
621,-27.343750
622,-27.343750
623,-27.343750
624,-27.343750
625,-27.343750
626,-27.343750
627,-27.343750
628,-27.343750
629,-27.343750
630,-27.343750
631,-27.343750
632,-27.343750
633,-27.343750
634,-27.343750
635,-27.343750
636,-27.343750
637,-27.343750
638,-27.343750
639,-27.343750
640,-27.343750
641,-27.343750
642,-27.343750
643,-27.343750
644,-27.343750
645,-27.343750
646,-27.343750
647,-27.343750
648,-27.343750
649,-27.343750
650,-27.343750
651,-27.343750
652,-27.343750
653,-27.343750
654,-27.343750
655,-27.343750
656,-27.343750
657,-27.343750
658,-27.343750
659,-27.343750
660,-27.343750
661,-27.343750
662,-27.343750
663,-27.343750
664,-27.343750
665,-27.343750
666,-27.343750
667,-27.343750
668,-27.343750
669,-27.343750
670,-27.343750
671,-27.343750
672,-27.343750
673,-27.343750
674,-27.343750
675,-27.343750
676,-27.343750
677,-27.343750
678,-27.343750
679,-27.343750
680,-27.343750
681,-27.343750
682,-27.343750
683,-27.343750
684,-27.343750
685,-27.343750
686,-27.343750
687,-27.343750
688,-27.343750
689,-27.343750
690,-27.343750
691,-27.343750
692,-27.343750
693,-27.343750
694,-27.343750
695,-27.343750
696,-27.343750
697,-27.343750
698,-27.343750
699,-27.343750
700,-27.343750
701,-27.343750
702,-27.343750
703,-27.343750
704,-27.343750
705,-27.343750
706,-27.343750
707,-27.343750
708,-27.343750
709,-27.343750
710,-27.343750
711,-27.343750
712,-27.343750
713,-27.343750
714,-27.343750
715,-27.343750
716,-27.343750
717,-27.343750
718,-27.343750
719,-27.343750
720,-27.343750
721,-27.343750
722,-27.343750
723,-27.343750
724,-27.343750
725,-27.343750
726,-27.343750
727,-27.343750
728,-27.343750
729,-27.343750
730,-27.343750
731,-27.343750
732,-27.343750
733,-27.343750
734,-27.343750
735,-27.343750
736,-27.343750
737,-23.437500
738,-27.343750
739,-27.343750
740,-23.437500
741,-27.343750
742,-27.343750
743,-27.343750
744,-27.343750
745,-27.343750
746,-23.437500
747,-23.437500
748,-27.343750
749,-23.437500
750,-23.437500
751,-27.343750
752,-27.343750
753,-23.437500
754,-23.437500
755,-23.437500
756,-23.437500
757,-23.437500
758,-23.437500
759,-23.437500
760,-23.437500
761,-23.437500
762,-23.437500
763,-23.437500
764,-23.437500
765,-23.437500
766,-23.437500
767,-23.437500
768,-23.437500
769,-23.437500
770,-23.437500
771,-23.437500
772,-23.437500
773,-23.437500
774,-23.437500
775,-23.437500
776,-23.437500
777,-23.437500
778,-23.437500
779,-23.437500
780,-23.437500
781,-23.437500
782,-23.437500
783,-23.437500
784,-23.437500
785,-23.437500
786,-23.437500
787,-23.437500
788,-23.437500
789,-23.437500
790,-23.437500
791,-23.437500
792,-23.437500
793,-23.437500
794,-23.437500
795,-23.437500
796,-23.437500
797,-23.437500
798,-23.437500
799,-23.437500
800,-23.437500
801,-23.437500
802,-23.437500
803,-23.437500
804,-23.437500
805,-23.437500
806,-23.437500
807,-23.437500
808,-19.531250
809,-23.437500
810,-19.531250
811,-19.531250
812,-23.437500
813,-19.531250
814,-19.531250
815,-19.531250
816,-19.531250
817,-19.531250
818,-19.531250
819,-19.531250
820,-19.531250
821,-19.531250
822,-19.531250
823,-19.531250
824,-19.531250
825,-19.531250
826,-19.531250
827,-19.531250
828,-19.531250
829,-19.531250
830,-19.531250
831,-19.531250
832,-19.531250
833,-19.531250
834,-19.531250
835,-19.531250
836,-19.531250
837,-19.531250
838,-19.531250
839,-19.531250
840,-19.531250
841,-19.531250
842,-19.531250
843,-19.531250
844,-19.531250
845,-19.531250
846,-19.531250
847,-19.531250
848,-19.531250
849,-19.531250
850,-19.531250
851,-19.531250
852,-19.531250
853,-19.531250
854,-19.531250
855,-19.531250
856,-15.625000
857,-19.531250
858,-19.531250
859,-19.531250
860,-19.531250
861,-19.531250
862,-19.531250
863,-19.531250
864,-15.625000
865,-15.625000
866,-19.531250
867,-15.625000
868,-15.625000
869,-15.625000
870,-15.625000
871,-15.625000
872,-15.625000
873,-15.625000
874,-15.625000
875,-15.625000
876,-15.625000
877,-15.625000
878,-15.625000
879,-15.625000
880,-15.625000
881,-15.625000
882,-15.625000
883,-15.625000
884,-15.625000
885,-15.625000
886,-15.625000
887,-15.625000
888,-15.625000
889,-15.625000
890,-15.625000
891,-15.625000
892,-15.625000
893,-15.625000
894,-15.625000
895,-15.625000
896,-15.625000
897,-15.625000
898,-15.625000
899,-15.625000
900,-15.625000
901,-15.625000
902,-15.625000
903,-15.625000
904,-15.625000
905,-15.625000
906,-15.625000
907,-15.625000
908,-15.625000
909,-15.625000
910,-11.718750
911,-15.625000
912,-11.718750
913,-11.718750
914,-11.718750
915,-15.625000
916,-11.718750
917,-11.718750
918,-11.718750
919,-11.718750
920,-11.718750
921,-11.718750
922,-11.718750
923,-11.718750
924,-11.718750
925,-11.718750
926,-11.718750
927,-11.718750
928,-11.718750
929,-11.718750
930,-11.718750
931,-11.718750
932,-11.718750
933,-11.718750
934,-11.718750
935,-11.718750
936,-11.718750
937,-11.718750
938,-11.718750
939,-11.718750
940,-11.718750
941,-11.718750
942,-11.718750
943,-11.718750
944,-11.718750
945,-11.718750
946,-11.718750
947,-11.718750
948,-11.718750
949,-11.718750
950,-11.718750
951,-11.718750
952,-11.718750
953,-11.718750
954,-11.718750
955,-11.718750
956,-7.812500
957,-7.812500
958,-7.812500
959,-7.812500
960,-11.718750
961,-7.812500
962,-7.812500
963,-11.718750
964,-7.812500
965,-7.812500
966,-7.812500
967,-11.718750
968,-7.812500
969,-7.812500
970,-7.812500
971,-7.812500
972,-7.812500
973,-7.812500
974,-7.812500
975,-7.812500
976,-7.812500
977,-7.812500
978,-7.812500
979,-7.812500
980,-7.812500
981,-7.812500
982,-7.812500
983,-7.812500
984,-7.812500
985,-7.812500
986,-7.812500
987,-7.812500
988,-7.812500
989,-7.812500
990,-7.812500
991,-7.812500
992,-7.812500
993,-7.812500
994,-7.812500
995,-7.812500
996,-7.812500
997,-7.812500
998,-7.812500
999,-7.812500
1000,-7.812500
1001,-7.812500
1002,-7.812500
1003,-7.812500
1004,-7.812500
1005,-7.812500
1006,-3.906250
1007,-7.812500
1008,-7.812500
1009,-7.812500
1010,-7.812500
1011,-7.812500
1012,-7.812500
1013,-7.812500
1014,-7.812500
1015,-3.906250
1016,-3.906250
1017,-7.812500
1018,-7.812500
1019,-7.812500
1020,-3.906250
1021,-3.906250
1022,-3.906250
1023,-3.906250
1024,-7.812500
1025,-3.906250
1026,-3.906250
1027,-3.906250
1028,-7.812500
1029,-3.906250
1030,-3.906250
1031,-3.906250
1032,-3.906250
1033,-3.906250
1034,-3.906250
1035,-3.906250
1036,-3.906250
1037,-3.906250
1038,-3.906250
1039,-3.906250
1040,-3.906250
1041,-3.906250
1042,-3.906250
1043,-3.906250
1044,-3.906250
1045,-3.906250
1046,-3.906250
1047,-3.906250
1048,-3.906250
1049,-3.906250
1050,-3.906250
1051,-3.906250
1052,-3.906250
1053,-3.906250
1054,-3.906250
1055,-3.906250
1056,-3.906250
1057,-3.906250
1058,-3.906250
1059,-3.906250
1060,-3.906250
1061,-3.906250
1062,-3.906250
1063,-3.906250
1064,-3.906250
1065,-3.906250
1066,-3.906250
1067,-3.906250
1068,-3.906250
1069,-3.906250
1070,0.000000
1071,-3.906250
1072,-3.906250
1073,-3.906250
1074,-3.906250
1075,-3.906250
1076,-3.906250
1077,0.000000
1078,0.000000
1079,-3.906250
1080,-3.906250
1081,-3.906250
1082,-3.906250
1083,-3.906250
1084,0.000000
1085,0.000000
1086,0.000000
1087,0.000000
1088,0.000000
1089,-3.906250
1090,0.000000
1091,-3.906250
1092,-3.906250
1093,0.000000
1094,0.000000
1095,0.000000
1096,0.000000
1097,0.000000
1098,0.000000
1099,0.000000
1100,0.000000
1101,0.000000
1102,0.000000
1103,0.000000
1104,0.000000
1105,0.000000
1106,0.000000
1107,0.000000
1108,0.000000
1109,0.000000
1110,0.000000
1111,0.000000
1112,0.000000
1113,0.000000
1114,0.000000
1115,0.000000
1116,0.000000
1117,0.000000
1118,0.000000
1119,0.000000
1120,0.000000
1121,0.000000
1122,0.000000
1123,0.000000
1124,0.000000
1125,0.000000
1126,0.000000
1127,0.000000
1128,0.000000
1129,0.000000
1130,0.000000
1131,0.000000
1132,0.000000
1133,0.000000
1134,0.000000
1135,0.000000
1136,0.000000
1137,0.000000
1138,0.000000
1139,0.000000
1140,0.000000
1141,0.000000
1142,0.000000
1143,0.000000
1144,0.000000
1145,0.000000
1146,0.000000
1147,0.000000
1148,0.000000
1149,0.000000
1150,0.000000
1151,0.000000
1152,0.000000
1153,0.000000
1154,0.000000
1155,0.000000
1156,0.000000
1157,0.000000
1158,0.000000
1159,0.000000
1160,0.000000
1161,0.000000
1162,0.000000
1163,0.000000
1164,0.000000
1165,0.000000
1166,0.000000
1167,0.000000
1168,0.000000
1169,0.000000
1170,0.000000
1171,0.000000
1172,0.000000
1173,0.000000
1174,0.000000
1175,0.000000
1176,0.000000
1177,0.000000
1178,0.000000
1179,0.000000
1180,0.000000
1181,0.000000
1182,0.000000
1183,0.000000
1184,0.000000
1185,0.000000
1186,0.000000
1187,0.000000
1188,0.000000
1189,0.000000
1190,0.000000
1191,0.000000
1192,0.000000
1193,0.000000
1194,0.000000
1195,0.000000
1196,0.000000
1197,0.000000
1198,0.000000
1199,0.000000
1200,0.000000
1201,0.000000
1202,0.000000
1203,0.000000
1204,0.000000
1205,0.000000
1206,0.000000
1207,0.000000
1208,0.000000
1209,0.000000
1210,0.000000
1211,0.000000
1212,0.000000
1213,0.000000
1214,0.000000
1215,0.000000
1216,0.000000
1217,0.000000
1218,0.000000
1219,0.000000
1220,0.000000
1221,0.000000
1222,0.000000
1223,0.000000
1224,0.000000
1225,0.000000
1226,0.000000
1227,0.000000
1228,0.000000
1229,0.000000
1230,0.000000
1231,0.000000
1232,0.000000
1233,0.000000
1234,0.000000
1235,0.000000
1236,0.000000
1237,0.000000
1238,0.000000
1239,0.000000
1240,0.000000
1241,0.000000
1242,0.000000
1243,0.000000
1244,0.000000
1245,0.000000
1246,0.000000
1247,0.000000
1248,0.000000
1249,0.000000
1250,0.000000
1251,0.000000
1252,0.000000
1253,0.000000
1254,0.000000
1255,-3.906250
1256,0.000000
1257,0.000000
1258,0.000000
1259,0.000000
1260,0.000000
1261,0.000000
1262,0.000000
1263,0.000000
1264,-3.906250
1265,0.000000
1266,0.000000
1267,0.000000
1268,0.000000
1269,0.000000
1270,0.000000
1271,-3.906250
1272,-3.906250
1273,-3.906250
1274,0.000000
1275,-3.906250
1276,-3.906250
1277,-3.906250
1278,0.000000
1279,-3.906250
1280,-3.906250
1281,-3.906250
1282,0.000000
1283,-3.906250
1284,-3.906250
1285,-3.906250
1286,-3.906250
1287,-3.906250
1288,-3.906250
1289,-3.906250
1290,0.000000
1291,-3.906250
1292,-3.906250
1293,-3.906250
1294,-3.906250
1295,-3.906250
1296,-3.906250
1297,-3.906250
1298,-3.906250
1299,-3.906250
1300,-3.906250
1301,-3.906250
1302,-3.906250
1303,-3.906250
1304,-3.906250
1305,-3.906250
1306,-3.906250
1307,-3.906250
1308,-3.906250
1309,-3.906250
1310,-3.906250
1311,-3.906250
1312,-3.906250
1313,-3.906250
1314,-3.906250
1315,-3.906250
1316,-3.906250
1317,-3.906250
1318,-3.906250
1319,-3.906250
1320,-3.906250
1321,-3.906250
1322,-3.906250
1323,-3.906250
1324,-3.906250
1325,-3.906250
1326,-3.906250
1327,-3.906250
1328,-3.906250
1329,-3.906250
1330,-3.906250
1331,-3.906250
1332,-3.906250
1333,-3.906250
1334,-3.906250
1335,-3.906250
1336,-3.906250
1337,-3.906250
1338,-3.906250
1339,-3.906250
1340,-3.906250
1341,-3.906250
1342,-3.906250
1343,-7.812500
1344,-3.906250
1345,-7.812500
1346,-3.906250
1347,-7.812500
1348,-3.906250
1349,-7.812500
1350,-7.812500
1351,-7.812500
1352,-7.812500
1353,-7.812500
1354,-7.812500
1355,-7.812500
1356,-7.812500
1357,-7.812500
1358,-7.812500
1359,-7.812500
1360,-7.812500
1361,-7.812500
1362,-7.812500
1363,-7.812500
1364,-7.812500
1365,-7.812500
1366,-7.812500
1367,-7.812500
1368,-7.812500
1369,-7.812500
1370,-7.812500
1371,-7.812500
1372,-7.812500
1373,-7.812500
1374,-7.812500
1375,-7.812500
1376,-7.812500
1377,-7.812500
1378,-7.812500
1379,-7.812500
1380,-7.812500
1381,-7.812500
1382,-7.812500
1383,-7.812500
1384,-7.812500
1385,-7.812500
1386,-7.812500
1387,-11.718750
1388,-11.718750
1389,-7.812500
1390,-11.718750
1391,-11.718750
1392,-11.718750
1393,-11.718750
1394,-11.718750
1395,-11.718750
1396,-11.718750
1397,-11.718750
1398,-11.718750
1399,-11.718750
1400,-11.718750
1401,-11.718750
1402,-11.718750
1403,-11.718750
1404,-11.718750
1405,-11.718750
1406,-11.718750
1407,-11.718750
1408,-11.718750
1409,-11.718750
1410,-11.718750
1411,-11.718750
1412,-11.718750
1413,-11.718750
1414,-11.718750
1415,-11.718750
1416,-11.718750
1417,-11.718750
1418,-11.718750
1419,-11.718750
1420,-11.718750
1421,-11.718750
1422,-11.718750
1423,-11.718750
1424,-11.718750
1425,-11.718750
1426,-15.625000
1427,-15.625000
1428,-15.625000
1429,-15.625000
1430,-15.625000
1431,-15.625000
1432,-11.718750
1433,-15.625000
1434,-11.718750
1435,-15.625000
1436,-15.625000
1437,-15.625000
1438,-15.625000
1439,-15.625000
1440,-15.625000
1441,-15.625000
1442,-15.625000
1443,-15.625000
1444,-15.625000
1445,-11.718750
1446,-15.625000
1447,-15.625000
1448,-15.625000
1449,-15.625000
1450,-15.625000
1451,-15.625000
1452,-15.625000
1453,-15.625000
1454,-15.625000
1455,-15.625000
1456,-15.625000
1457,-15.625000
1458,-15.625000
1459,-15.625000
1460,-15.625000
1461,-15.625000
1462,-15.625000
1463,-15.625000
1464,-15.625000
1465,-15.625000
1466,-15.625000
1467,-15.625000
1468,-15.625000
1469,-15.625000
1470,-15.625000
1471,-19.531250
1472,-15.625000
1473,-15.625000
1474,-19.531250
1475,-19.531250
1476,-19.531250
1477,-19.531250
1478,-19.531250
1479,-15.625000
1480,-15.625000
1481,-19.531250
1482,-19.531250
1483,-19.531250
1484,-19.531250
1485,-19.531250
1486,-19.531250
1487,-19.531250
1488,-19.531250
1489,-19.531250
1490,-19.531250
1491,-19.531250
1492,-19.531250
1493,-19.531250
1494,-19.531250
1495,-19.531250
1496,-19.531250
1497,-19.531250
1498,-19.531250
1499,-19.531250
1500,-19.531250
1501,-19.531250
1502,-19.531250
1503,-19.531250
1504,-19.531250
1505,-19.531250
1506,-19.531250
1507,-19.531250
1508,-19.531250
1509,-19.531250
1510,-19.531250
1511,-19.531250
1512,-23.437500
1513,-19.531250
1514,-19.531250
1515,-23.437500
1516,-19.531250
1517,-19.531250
1518,-19.531250
1519,-23.437500
1520,-23.437500
1521,-23.437500
1522,-23.437500
1523,-23.437500
1524,-23.437500
1525,-23.437500
1526,-23.437500
1527,-23.437500
1528,-23.437500
1529,-23.437500
1530,-23.437500
1531,-23.437500
1532,-23.437500
1533,-23.437500
1534,-23.437500
1535,-23.437500
1536,-23.437500
1537,-23.437500
1538,-23.437500
1539,-23.437500
1540,-23.437500
1541,-23.437500
1542,-23.437500
1543,-23.437500
1544,-27.343750
1545,-23.437500
1546,-23.437500
1547,-23.437500
1548,-23.437500
1549,-23.437500
1550,-23.437500
1551,-23.437500
1552,-23.437500
1553,-23.437500
1554,-23.437500
1555,-23.437500
1556,-23.437500
1557,-23.437500
1558,-23.437500
1559,-23.437500
1560,-23.437500
1561,-23.437500
1562,-23.437500
1563,-23.437500
1564,-23.437500
1565,-23.437500
1566,-23.437500
1567,-23.437500
1568,-23.437500
1569,-23.437500
1570,-23.437500
1571,-23.437500
1572,-27.343750
1573,-27.343750
1574,-27.343750
1575,-23.437500
1576,-23.437500
1577,-27.343750
1578,-23.437500
1579,-27.343750
1580,-23.437500
1581,-27.343750
1582,-27.343750
1583,-27.343750
1584,-27.343750
1585,-27.343750
1586,-27.343750
1587,-27.343750
1588,-27.343750
1589,-23.437500
1590,-27.343750
1591,-27.343750
1592,-27.343750
1593,-27.343750
1594,-27.343750
1595,-27.343750
1596,-27.343750
1597,-27.343750
1598,-27.343750
1599,-23.437500
1600,-27.343750
1601,-27.343750
1602,-27.343750
1603,-27.343750
1604,-27.343750
1605,-27.343750
1606,-27.343750
1607,-27.343750
1608,-27.343750
1609,-27.343750
1610,-27.343750
1611,-27.343750
1612,-27.343750
1613,-27.343750
1614,-27.343750
1615,-27.343750
1616,-27.343750
1617,-27.343750
1618,-27.343750
1619,-27.343750
1620,-27.343750
1621,-27.343750
1622,-27.343750
1623,-27.343750
1624,-27.343750
1625,-27.343750
1626,-27.343750
1627,-27.343750
1628,-27.343750
1629,-27.343750
1630,-27.343750
1631,-27.343750
1632,-27.343750
1633,-27.343750
1634,-27.343750
1635,-27.343750
1636,-27.343750
1637,-27.343750
1638,-27.343750
1639,-27.343750
1640,-27.343750
1641,-27.343750
1642,-27.343750
1643,-27.343750
1644,-27.343750
1645,-27.343750
1646,-27.343750
1647,-27.343750
1648,-27.343750
1649,-27.343750
1650,-27.343750
1651,-27.343750
1652,-27.343750
1653,-27.343750
1654,-27.343750
1655,-27.343750
1656,-27.343750
1657,-27.343750
1658,-27.343750
1659,-27.343750
1660,-27.343750
1661,-27.343750
1662,-27.343750
1663,-27.343750
1664,-27.343750
1665,-27.343750
1666,-27.343750
1667,-27.343750
1668,-27.343750
1669,-27.343750
1670,-27.343750
1671,-27.343750
1672,-27.343750
1673,-27.343750
1674,-27.343750
1675,-27.343750
1676,-27.343750
1677,-27.343750
1678,-27.343750
1679,-27.343750
1680,-27.343750
1681,-27.343750
1682,-27.343750
1683,-27.343750
1684,-27.343750
1685,-27.343750
1686,-27.343750
1687,-27.343750
1688,-27.343750
1689,-27.343750
1690,-27.343750
1691,-27.343750
1692,-27.343750
1693,-27.343750
1694,-27.343750
1695,-27.343750
1696,-27.343750
1697,-27.343750
1698,-27.343750
1699,-27.343750
1700,-27.343750
1701,-27.343750
1702,-27.343750
1703,-27.343750
1704,-27.343750
1705,-27.343750
1706,-27.343750
1707,-27.343750
1708,-27.343750
1709,-27.343750
1710,-27.343750
1711,-27.343750
1712,-27.343750
1713,-27.343750
1714,-27.343750
1715,-27.343750
1716,-27.343750
1717,-27.343750
1718,-27.343750
1719,-27.343750
1720,-27.343750
1721,-27.343750
1722,-27.343750
1723,-27.343750
1724,-27.343750
1725,-27.343750
1726,-27.343750
1727,-23.437500
1728,-23.437500
1729,-23.437500
1730,-27.343750
1731,-27.343750
1732,-27.343750
1733,-27.343750
1734,-27.343750
1735,-27.343750
1736,-27.343750
1737,-27.343750
1738,-23.437500
1739,-23.437500
1740,-23.437500
1741,-23.437500
1742,-27.343750
1743,-27.343750
1744,-23.437500
1745,-23.437500
1746,-23.437500
1747,-23.437500
1748,-23.437500
1749,-23.437500
1750,-23.437500
1751,-23.437500
1752,-23.437500
1753,-27.343750
1754,-23.437500
1755,-23.437500
1756,-23.437500
1757,-23.437500
1758,-23.437500
1759,-23.437500
1760,-23.437500
1761,-23.437500
1762,-23.437500
1763,-23.437500
1764,-23.437500
1765,-23.437500
1766,-23.437500
1767,-23.437500
1768,-23.437500
1769,-23.437500
1770,-23.437500
1771,-23.437500
1772,-23.437500
1773,-23.437500
1774,-23.437500
1775,-23.437500
1776,-23.437500
1777,-23.437500
1778,-23.437500
1779,-23.437500
1780,-23.437500
1781,-23.437500
1782,-23.437500
1783,-23.437500
1784,-23.437500
1785,-23.437500
1786,-23.437500
1787,-23.437500
1788,-23.437500
1789,-23.437500
1790,-23.437500
1791,-23.437500
1792,-23.437500
1793,-23.437500
1794,-23.437500
1795,-23.437500
1796,-23.437500
1797,-23.437500
1798,-23.437500
1799,-19.531250
1800,-19.531250
1801,-23.437500
1802,-23.437500
1803,-23.437500
1804,-23.437500
1805,-19.531250
1806,-19.531250
1807,-19.531250
1808,-19.531250
1809,-19.531250
1810,-19.531250
1811,-19.531250
1812,-19.531250
1813,-19.531250
1814,-19.531250
1815,-19.531250
1816,-19.531250
1817,-19.531250
1818,-19.531250
1819,-19.531250
1820,-19.531250
1821,-19.531250
1822,-19.531250
1823,-19.531250
1824,-19.531250
1825,-19.531250
1826,-19.531250
1827,-19.531250
1828,-19.531250
1829,-19.531250
1830,-19.531250
1831,-19.531250
1832,-19.531250
1833,-19.531250
1834,-19.531250
1835,-19.531250
1836,-19.531250
1837,-19.531250
1838,-19.531250
1839,-19.531250
1840,-19.531250
1841,-19.531250
1842,-19.531250
1843,-19.531250
1844,-19.531250
1845,-15.625000
1846,-15.625000
1847,-19.531250
1848,-19.531250
1849,-19.531250
1850,-19.531250
1851,-19.531250
1852,-15.625000
1853,-15.625000
1854,-15.625000
1855,-15.625000
1856,-15.625000
1857,-15.625000
1858,-15.625000
1859,-15.625000
1860,-15.625000
1861,-15.625000
1862,-15.625000
1863,-15.625000
1864,-15.625000
1865,-15.625000
1866,-15.625000
1867,-15.625000
1868,-15.625000
1869,-15.625000
1870,-15.625000
1871,-15.625000
1872,-15.625000
1873,-15.625000
1874,-15.625000
1875,-15.625000
1876,-15.625000
1877,-15.625000
1878,-15.625000
1879,-15.625000
1880,-15.625000
1881,-15.625000
1882,-15.625000
1883,-15.625000
1884,-15.625000
1885,-15.625000
1886,-15.625000
1887,-15.625000
1888,-15.625000
1889,-15.625000
1890,-15.625000
1891,-15.625000
1892,-15.625000
1893,-15.625000
1894,-15.625000
1895,-15.625000
1896,-15.625000
1897,-15.625000
1898,-15.625000
1899,-15.625000
1900,-15.625000
1901,-15.625000
1902,-15.625000
1903,-11.718750
1904,-11.718750
1905,-11.718750
1906,-11.718750
1907,-15.625000
1908,-11.718750
1909,-11.718750
1910,-11.718750
1911,-11.718750
1912,-11.718750
1913,-15.625000
1914,-11.718750
1915,-11.718750
1916,-11.718750
1917,-11.718750
1918,-11.718750
1919,-11.718750
1920,-11.718750
1921,-11.718750
1922,-11.718750
1923,-11.718750
1924,-11.718750
1925,-11.718750
1926,-11.718750
1927,-11.718750
1928,-11.718750
1929,-11.718750
1930,-11.718750
1931,-11.718750
1932,-11.718750
1933,-11.718750
1934,-11.718750
1935,-11.718750
1936,-11.718750
1937,-11.718750
1938,-11.718750
1939,-11.718750
1940,-11.718750
1941,-11.718750
1942,-11.718750
1943,-11.718750
1944,-11.718750
1945,-11.718750
1946,-11.718750
1947,-11.718750
1948,-11.718750
1949,-7.812500
1950,-7.812500
1951,-7.812500
1952,-7.812500
1953,-7.812500
1954,-7.812500
1955,-7.812500
1956,-7.812500
1957,-7.812500
1958,-7.812500
1959,-11.718750
1960,-7.812500
1961,-7.812500
1962,-7.812500
1963,-7.812500
1964,-7.812500
1965,-7.812500
1966,-7.812500
1967,-7.812500
1968,-7.812500
1969,-7.812500
1970,-7.812500
1971,-7.812500
1972,-7.812500
1973,-7.812500
1974,-7.812500
1975,-7.812500
1976,-7.812500
1977,-7.812500
1978,-7.812500
1979,-7.812500
1980,-7.812500
1981,-7.812500
1982,-7.812500
1983,-7.812500
1984,-7.812500
1985,-7.812500
1986,-7.812500
1987,-7.812500
1988,-7.812500
1989,-7.812500
1990,-7.812500
1991,-7.812500
1992,-7.812500
1993,-7.812500
1994,-7.812500
1995,-7.812500
1996,-7.812500
1997,-7.812500
1998,-7.812500
1999,-7.812500
2000,-7.812500
2001,-7.812500
2002,-7.812500
2003,-7.812500
2004,-3.906250
2005,-7.812500
2006,-7.812500
2007,-7.812500
2008,-7.812500
2009,-3.906250
2010,-7.812500
2011,-3.906250
2012,-3.906250
2013,-3.906250
2014,-3.906250
2015,-3.906250
2016,-3.906250
2017,-3.906250
2018,-3.906250
2019,-3.906250
2020,-3.906250
2021,-3.906250
2022,-3.906250
2023,-3.906250
2024,-3.906250
2025,-3.906250
2026,-3.906250
2027,-3.906250
2028,-3.906250
2029,-3.906250
2030,-3.906250
2031,-3.906250
2032,-3.906250
2033,-3.906250
2034,-3.906250
2035,-3.906250
2036,-3.906250
2037,-3.906250
2038,-3.906250
2039,-3.906250
2040,-3.906250
2041,-3.906250
2042,-3.906250
2043,-3.906250
2044,-3.906250
2045,-3.906250
2046,-3.906250
2047,-3.906250
2048,-3.906250
2049,-3.906250
2050,-3.906250
2051,-3.906250
2052,-3.906250
2053,-3.906250
2054,-3.906250
2055,-3.906250
2056,-3.906250
2057,-3.906250
2058,-3.906250
2059,-3.906250
2060,-3.906250
2061,-3.906250
2062,-3.906250
2063,-3.906250
2064,-3.906250
2065,-3.906250
2066,-3.906250
2067,-3.906250
2068,-3.906250
2069,-3.906250
2070,-3.906250
2071,-3.906250
2072,-3.906250
2073,-3.906250
2074,0.000000
2075,-3.906250
2076,0.000000
2077,-3.906250
2078,-3.906250
2079,-3.906250
2080,-3.906250
2081,-3.906250
2082,0.000000
2083,0.000000
2084,0.000000
2085,0.000000
2086,0.000000
2087,-3.906250
2088,-3.906250
2089,-3.906250
2090,-3.906250
2091,0.000000
2092,0.000000
2093,0.000000
2094,0.000000
2095,0.000000
2096,0.000000
2097,-3.906250
2098,0.000000
2099,0.000000
2100,0.000000
2101,0.000000
2102,0.000000
2103,0.000000
2104,0.000000
2105,0.000000
2106,0.000000
2107,-3.906250
2108,0.000000
2109,0.000000
2110,0.000000
2111,0.000000
2112,0.000000
2113,0.000000
2114,0.000000
2115,0.000000
2116,0.000000
2117,0.000000
2118,0.000000
2119,0.000000
2120,0.000000
2121,0.000000
2122,0.000000
2123,0.000000
2124,0.000000
2125,0.000000
2126,0.000000
2127,0.000000
2128,0.000000
2129,0.000000
2130,0.000000
2131,0.000000
2132,0.000000
2133,0.000000
2134,0.000000
2135,0.000000
2136,0.000000
2137,0.000000
2138,0.000000
2139,0.000000
2140,0.000000
2141,0.000000
2142,0.000000
2143,0.000000
2144,0.000000
2145,0.000000
2146,0.000000
2147,0.000000
2148,0.000000
2149,0.000000
2150,0.000000
2151,0.000000
2152,0.000000
2153,0.000000
2154,0.000000
2155,0.000000
2156,0.000000
2157,0.000000
2158,0.000000
2159,0.000000
2160,0.000000
2161,0.000000
2162,0.000000
2163,0.000000
2164,0.000000
2165,0.000000
2166,0.000000
2167,0.000000
2168,0.000000
2169,0.000000
2170,0.000000
2171,0.000000
2172,0.000000
2173,0.000000
2174,0.000000
2175,0.000000
2176,0.000000
2177,0.000000
2178,0.000000
2179,0.000000
2180,0.000000
2181,0.000000
2182,0.000000
2183,0.000000
2184,0.000000
2185,0.000000
2186,0.000000
2187,0.000000
2188,0.000000
2189,0.000000
2190,0.000000
2191,0.000000
2192,0.000000
2193,0.000000
2194,0.000000
2195,0.000000
2196,0.000000
2197,0.000000
2198,0.000000
2199,0.000000
2200,0.000000
2201,0.000000
2202,0.000000
2203,0.000000
2204,0.000000
2205,0.000000
2206,0.000000
2207,0.000000
2208,0.000000
2209,0.000000
2210,0.000000
2211,0.000000
2212,0.000000
2213,0.000000
2214,0.000000
2215,0.000000
2216,0.000000
2217,0.000000
2218,0.000000
2219,0.000000
2220,0.000000
2221,0.000000
2222,0.000000
2223,0.000000
2224,0.000000
2225,0.000000
2226,0.000000
2227,0.000000
2228,0.000000
2229,0.000000
2230,0.000000
2231,0.000000
2232,0.000000
2233,0.000000
2234,0.000000
2235,0.000000
2236,0.000000
2237,0.000000
2238,0.000000
2239,0.000000
2240,0.000000
2241,0.000000
2242,0.000000
2243,0.000000
2244,0.000000
2245,0.000000
2246,0.000000
2247,0.000000
2248,0.000000
2249,0.000000
2250,0.000000
2251,0.000000
2252,0.000000
2253,0.000000
2254,0.000000
2255,0.000000
2256,0.000000
2257,0.000000
2258,0.000000
2259,0.000000
2260,0.000000
2261,-3.906250
2262,0.000000
2263,0.000000
2264,0.000000
2265,0.000000
2266,0.000000
2267,0.000000
2268,0.000000
2269,0.000000
2270,-3.906250
2271,-3.906250
2272,-3.906250
2273,-3.906250
2274,-3.906250
2275,-3.906250
2276,-3.906250
2277,-3.906250
2278,-3.906250
2279,-3.906250
2280,-3.906250
2281,-3.906250
2282,-3.906250
2283,-3.906250
2284,-3.906250
2285,-3.906250
2286,-3.906250
2287,-3.906250
2288,-3.906250
2289,-3.906250
2290,-3.906250
2291,-3.906250
2292,-3.906250
2293,-3.906250
2294,-3.906250
2295,-3.906250
2296,-3.906250
2297,-3.906250
2298,-3.906250
2299,-3.906250
2300,-3.906250
2301,-3.906250
2302,-3.906250
2303,-3.906250
2304,-3.906250
2305,-3.906250
2306,-3.906250
2307,-3.906250
2308,-3.906250
2309,-3.906250
2310,-3.906250
2311,-3.906250
2312,-3.906250
2313,-3.906250
2314,-3.906250
2315,-3.906250
2316,-3.906250
2317,-3.906250
2318,-3.906250
2319,-3.906250
2320,-3.906250
2321,-3.906250
2322,-7.812500
2323,-3.906250
2324,-7.812500
2325,-7.812500
2326,-3.906250
2327,-7.812500
2328,-7.812500
2329,-3.906250
2330,-3.906250
2331,-7.812500
2332,-7.812500
2333,-7.812500
2334,-7.812500
2335,-7.812500
2336,-7.812500
2337,-7.812500
2338,-7.812500
2339,-7.812500
2340,-7.812500
2341,-7.812500
2342,-7.812500
2343,-7.812500
2344,-7.812500
2345,-7.812500
2346,-7.812500
2347,-7.812500
2348,-7.812500
2349,-7.812500
2350,-7.812500
2351,-7.812500
2352,-7.812500
2353,-7.812500
2354,-7.812500
2355,-7.812500
2356,-7.812500
2357,-7.812500
2358,-7.812500
2359,-7.812500
2360,-7.812500
2361,-7.812500
2362,-7.812500
2363,-7.812500
2364,-7.812500
2365,-7.812500
2366,-7.812500
2367,-7.812500
2368,-7.812500
2369,-7.812500
2370,-7.812500
2371,-7.812500
2372,-7.812500
2373,-7.812500
2374,-11.718750
2375,-11.718750
2376,-7.812500
2377,-11.718750
2378,-11.718750
2379,-7.812500
2380,-7.812500
2381,-11.718750
2382,-11.718750
2383,-11.718750
2384,-11.718750
2385,-11.718750
2386,-11.718750
2387,-11.718750
2388,-11.718750
2389,-11.718750
2390,-11.718750
2391,-11.718750
2392,-11.718750
2393,-11.718750
2394,-11.718750
2395,-11.718750
2396,-11.718750
2397,-11.718750
2398,-11.718750
2399,-11.718750
2400,-11.718750
2401,-11.718750
2402,-11.718750
2403,-11.718750
2404,-11.718750
2405,-11.718750
2406,-11.718750
2407,-11.718750
2408,-11.718750
2409,-11.718750
2410,-11.718750
2411,-11.718750
2412,-11.718750
2413,-11.718750
2414,-15.625000
2415,-15.625000
2416,-15.625000
2417,-15.625000
2418,-15.625000
2419,-11.718750
2420,-11.718750
2421,-11.718750
2422,-15.625000
2423,-15.625000
2424,-15.625000
2425,-15.625000
2426,-15.625000
2427,-15.625000
2428,-15.625000
2429,-15.625000
2430,-15.625000
2431,-15.625000
2432,-15.625000
2433,-15.625000
2434,-15.625000
2435,-15.625000
2436,-15.625000
2437,-15.625000
2438,-15.625000
2439,-15.625000
2440,-15.625000
2441,-15.625000
2442,-15.625000
2443,-15.625000
2444,-15.625000
2445,-15.625000
2446,-15.625000
2447,-15.625000
2448,-15.625000
2449,-15.625000
2450,-15.625000
2451,-15.625000
2452,-15.625000
2453,-15.625000
2454,-15.625000
2455,-15.625000
2456,-15.625000
2457,-19.531250
2458,-15.625000
2459,-15.625000
2460,-15.625000
2461,-19.531250
2462,-19.531250
2463,-15.625000
2464,-19.531250
2465,-19.531250
2466,-19.531250
2467,-19.531250
2468,-19.531250
2469,-19.531250
2470,-19.531250
2471,-19.531250
2472,-19.531250
2473,-19.531250
2474,-19.531250
2475,-19.531250
2476,-19.531250
2477,-19.531250
2478,-19.531250
2479,-19.531250
2480,-19.531250
2481,-19.531250
2482,-19.531250
2483,-19.531250
2484,-19.531250
2485,-19.531250
2486,-19.531250
2487,-19.531250
2488,-19.531250
2489,-19.531250
2490,-19.531250
2491,-19.531250
2492,-19.531250
2493,-19.531250
2494,-19.531250
2495,-19.531250
2496,-19.531250
2497,-19.531250
2498,-19.531250
2499,-19.531250
2500,-19.531250
2501,-19.531250
2502,-19.531250
2503,-19.531250
2504,-19.531250
2505,-19.531250
2506,-19.531250
2507,-23.437500
2508,-19.531250
2509,-19.531250
2510,-19.531250
2511,-19.531250
2512,-19.531250
2513,-23.437500
2514,-23.437500
2515,-23.437500
2516,-23.437500
2517,-23.437500
2518,-23.437500
2519,-23.437500
2520,-23.437500
2521,-23.437500
2522,-23.437500
2523,-23.437500
2524,-23.437500
2525,-23.437500
2526,-23.437500
2527,-23.437500
2528,-23.437500
2529,-23.437500
2530,-23.437500
2531,-23.437500
2532,-23.437500
2533,-23.437500
2534,-23.437500
2535,-23.437500
2536,-23.437500
2537,-23.437500
2538,-23.437500
2539,-23.437500
2540,-23.437500
2541,-23.437500
2542,-23.437500
2543,-23.437500
2544,-23.437500
2545,-23.437500
2546,-23.437500
2547,-23.437500
2548,-23.437500
2549,-23.437500
2550,-23.437500
2551,-23.437500
2552,-23.437500
2553,-23.437500
2554,-23.437500
2555,-23.437500
2556,-23.437500
2557,-23.437500
2558,-23.437500
2559,-27.343750
2560,-23.437500
2561,-23.437500
2562,-23.437500
2563,-23.437500
2564,-27.343750
2565,-27.343750
2566,-27.343750
2567,-27.343750
2568,-27.343750
2569,-23.437500
2570,-27.343750
2571,-27.343750
2572,-23.437500
2573,-23.437500
2574,-27.343750
2575,-27.343750
2576,-27.343750
2577,-27.343750
2578,-27.343750
2579,-27.343750
2580,-27.343750
2581,-27.343750
2582,-27.343750
2583,-27.343750
2584,-27.343750
2585,-27.343750
2586,-27.343750
2587,-27.343750
2588,-27.343750
2589,-27.343750
2590,-27.343750
2591,-27.343750
2592,-27.343750
2593,-27.343750
2594,-27.343750
2595,-27.343750
2596,-27.343750
2597,-27.343750
2598,-27.343750
2599,-27.343750
2600,-27.343750
2601,-27.343750
2602,-27.343750
2603,-27.343750
2604,-27.343750
2605,-27.343750
2606,-27.343750
2607,-27.343750
2608,-27.343750
2609,-27.343750
2610,-27.343750
2611,-27.343750
2612,-27.343750
2613,-27.343750
2614,-27.343750
2615,-27.343750
2616,-27.343750
2617,-27.343750
2618,-27.343750
2619,-27.343750
2620,-27.343750
2621,-27.343750
2622,-27.343750
2623,-27.343750
2624,-27.343750
2625,-27.343750
2626,-27.343750
2627,-27.343750
2628,-27.343750
2629,-27.343750
2630,-27.343750
2631,-27.343750
2632,-27.343750
2633,-27.343750
2634,-27.343750
2635,-27.343750
2636,-27.343750
2637,-27.343750
2638,-27.343750
2639,-27.343750
2640,-27.343750
2641,-27.343750
2642,-27.343750
2643,-27.343750
2644,-27.343750
2645,-27.343750
2646,-27.343750
2647,-27.343750
2648,-27.343750
2649,-27.343750
2650,-27.343750
2651,-27.343750
2652,-27.343750
2653,-27.343750
2654,-27.343750
2655,-27.343750
2656,-27.343750
2657,-27.343750
2658,-27.343750
2659,-27.343750
2660,-27.343750
2661,-27.343750
2662,-27.343750
2663,-27.343750
2664,-27.343750
2665,-27.343750
2666,-27.343750
2667,-27.343750
2668,-27.343750
2669,-27.343750
2670,-27.343750
2671,-27.343750
2672,-27.343750
2673,-27.343750
2674,-27.343750
2675,-27.343750
2676,-27.343750
2677,-27.343750
2678,-27.343750
2679,-27.343750
2680,-27.343750
2681,-27.343750
2682,-27.343750
2683,-27.343750
2684,-27.343750
2685,-27.343750
2686,-27.343750
2687,-27.343750
2688,-27.343750
2689,-27.343750
2690,-27.343750
2691,-27.343750
2692,-27.343750
2693,-27.343750
2694,-27.343750
2695,-27.343750
2696,-27.343750
2697,-27.343750
2698,-27.343750
2699,-27.343750
2700,-27.343750
2701,-27.343750
2702,-27.343750
2703,-27.343750
2704,-27.343750
2705,-27.343750
2706,-27.343750
2707,-27.343750
2708,-27.343750
2709,-27.343750
2710,-27.343750
2711,-27.343750
2712,-27.343750
2713,-27.343750
2714,-27.343750
2715,-27.343750
2716,-27.343750
2717,-27.343750
2718,-27.343750
2719,-27.343750
2720,-23.437500
2721,-27.343750
2722,-23.437500
2723,-27.343750
2724,-23.437500
2725,-27.343750
2726,-27.343750
2727,-27.343750
2728,-27.343750
2729,-23.437500
2730,-27.343750
2731,-23.437500
2732,-23.437500
2733,-23.437500
2734,-23.437500
2735,-27.343750
2736,-27.343750
2737,-23.437500
2738,-23.437500
2739,-23.437500
2740,-23.437500
2741,-23.437500
2742,-23.437500
2743,-23.437500
2744,-23.437500
2745,-23.437500
2746,-23.437500
2747,-23.437500
2748,-23.437500
2749,-23.437500
2750,-23.437500
2751,-23.437500
2752,-23.437500
2753,-23.437500
2754,-23.437500
2755,-23.437500
2756,-23.437500
2757,-23.437500
2758,-23.437500
2759,-23.437500
2760,-23.437500
2761,-23.437500
2762,-23.437500
2763,-23.437500
2764,-23.437500
2765,-23.437500
2766,-23.437500
2767,-23.437500
2768,-23.437500
2769,-23.437500
2770,-23.437500
2771,-23.437500
2772,-23.437500
2773,-23.437500
2774,-23.437500
2775,-23.437500
2776,-23.437500
2777,-23.437500
2778,-23.437500
2779,-23.437500
2780,-23.437500
2781,-23.437500
2782,-23.437500
2783,-23.437500
2784,-23.437500
2785,-23.437500
2786,-23.437500
2787,-23.437500
2788,-23.437500
2789,-23.437500
2790,-23.437500
2791,-19.531250
2792,-19.531250
2793,-19.531250
2794,-19.531250
2795,-23.437500
2796,-19.531250
2797,-19.531250
2798,-19.531250
2799,-23.437500
2800,-19.531250
2801,-19.531250
2802,-19.531250
2803,-19.531250
2804,-19.531250
2805,-19.531250
2806,-19.531250
2807,-19.531250
2808,-19.531250
2809,-19.531250
2810,-19.531250
2811,-19.531250
2812,-19.531250
2813,-19.531250
2814,-19.531250
2815,-19.531250
2816,-19.531250
2817,-19.531250
2818,-19.531250
2819,-19.531250
2820,-19.531250
2821,-19.531250
2822,-19.531250
2823,-19.531250
2824,-19.531250
2825,-19.531250
2826,-19.531250
2827,-19.531250
2828,-19.531250
2829,-19.531250
2830,-19.531250
2831,-19.531250
2832,-19.531250
2833,-19.531250
2834,-19.531250
2835,-19.531250
2836,-19.531250
2837,-19.531250
2838,-19.531250
2839,-19.531250
2840,-19.531250
2841,-19.531250
2842,-15.625000
2843,-19.531250
2844,-19.531250
2845,-19.531250
2846,-19.531250
2847,-15.625000
2848,-15.625000
2849,-15.625000
2850,-15.625000
2851,-15.625000
2852,-15.625000
2853,-15.625000
2854,-15.625000
2855,-15.625000
2856,-15.625000
2857,-15.625000
2858,-15.625000
2859,-15.625000
2860,-15.625000
2861,-15.625000
2862,-15.625000
2863,-15.625000
2864,-15.625000
2865,-15.625000
2866,-15.625000
2867,-15.625000
2868,-15.625000
2869,-15.625000
2870,-15.625000
2871,-15.625000
2872,-15.625000
2873,-15.625000
2874,-15.625000
2875,-15.625000
2876,-15.625000
2877,-15.625000
2878,-15.625000
2879,-15.625000
2880,-15.625000
2881,-15.625000
2882,-15.625000
2883,-15.625000
2884,-11.718750
2885,-15.625000
2886,-15.625000
2887,-15.625000
2888,-11.718750
2889,-11.718750
2890,-11.718750
2891,-15.625000
2892,-11.718750
2893,-11.718750
2894,-11.718750
2895,-11.718750
2896,-11.718750
2897,-11.718750
2898,-11.718750
2899,-11.718750
2900,-11.718750
2901,-11.718750
2902,-11.718750
2903,-11.718750
2904,-11.718750
2905,-11.718750
2906,-11.718750
2907,-11.718750
2908,-11.718750
2909,-11.718750
2910,-11.718750
2911,-11.718750
2912,-11.718750
2913,-11.718750
2914,-11.718750
2915,-11.718750
2916,-11.718750
2917,-11.718750
2918,-11.718750
2919,-11.718750
2920,-11.718750
2921,-11.718750
2922,-11.718750
2923,-11.718750
2924,-11.718750
2925,-11.718750
2926,-11.718750
2927,-11.718750
2928,-11.718750
2929,-11.718750
2930,-11.718750
2931,-11.718750
2932,-11.718750
2933,-11.718750
2934,-11.718750
2935,-11.718750
2936,-11.718750
2937,-11.718750
2938,-11.718750
2939,-11.718750
2940,-11.718750
2941,-7.812500
2942,-7.812500
2943,-7.812500
2944,-7.812500
2945,-7.812500
2946,-7.812500
2947,-11.718750
2948,-7.812500
2949,-7.812500
2950,-7.812500
2951,-7.812500
2952,-7.812500
2953,-7.812500
2954,-7.812500
2955,-7.812500
2956,-7.812500
2957,-7.812500
2958,-7.812500
2959,-7.812500
2960,-7.812500
2961,-7.812500
2962,-7.812500
2963,-7.812500
2964,-7.812500
2965,-7.812500
2966,-7.812500
2967,-7.812500
2968,-7.812500
2969,-7.812500
2970,-7.812500
2971,-7.812500
2972,-7.812500
2973,-7.812500
2974,-7.812500
2975,-7.812500
2976,-7.812500
2977,-7.812500
2978,-7.812500
2979,-7.812500
2980,-7.812500
2981,-7.812500
2982,-7.812500
2983,-7.812500
2984,-7.812500
2985,-7.812500
2986,-7.812500
2987,-7.812500
2988,-7.812500
2989,-7.812500
2990,-7.812500
2991,-7.812500
2992,-3.906250
2993,-7.812500
2994,-7.812500
2995,-7.812500
2996,-7.812500
2997,-7.812500
2998,-3.906250
2999,-7.812500
3000,-3.906250
3001,-3.906250
3002,-3.906250
3003,-3.906250
3004,-3.906250
3005,-3.906250
3006,-3.906250
3007,-3.906250
3008,-3.906250
3009,-3.906250
3010,-3.906250
3011,-3.906250
3012,-3.906250
3013,-3.906250
3014,-3.906250
3015,-3.906250
3016,-3.906250
3017,-3.906250
3018,-3.906250
3019,-3.906250
3020,-3.906250
3021,-3.906250
3022,-3.906250
3023,-3.906250
3024,-3.906250
3025,-3.906250
3026,-3.906250
3027,-3.906250
3028,-3.906250
3029,-3.906250
3030,-3.906250
3031,-3.906250
3032,-3.906250
3033,-3.906250
3034,-3.906250
3035,-3.906250
3036,-3.906250
3037,-3.906250
3038,-3.906250
3039,-3.906250
3040,-3.906250
3041,-3.906250
3042,-3.906250
3043,-3.906250
3044,-3.906250
3045,-3.906250
3046,-3.906250
3047,-3.906250
3048,-3.906250
3049,-3.906250
3050,-3.906250
3051,-3.906250
3052,-3.906250
3053,-3.906250
3054,-3.906250
3055,0.000000
3056,0.000000
3057,0.000000
3058,-3.906250
3059,-3.906250
3060,-3.906250
3061,-3.906250
3062,-3.906250
3063,-3.906250
3064,-3.906250
3065,0.000000
3066,0.000000
3067,0.000000
3068,0.000000
3069,-3.906250
3070,0.000000
3071,-3.906250
3072,0.000000
3073,0.000000
3074,0.000000
3075,0.000000
3076,0.000000
3077,0.000000
3078,0.000000
3079,0.000000
3080,0.000000
3081,0.000000
3082,0.000000
3083,-3.906250
3084,0.000000
3085,0.000000
3086,0.000000
3087,0.000000
3088,0.000000
3089,0.000000
3090,0.000000
3091,0.000000
3092,0.000000
3093,0.000000
3094,0.000000
3095,0.000000
3096,0.000000
3097,0.000000
3098,0.000000
3099,0.000000
3100,0.000000
3101,0.000000
3102,0.000000
3103,0.000000
3104,0.000000
3105,0.000000
3106,0.000000
3107,0.000000
3108,0.000000
3109,0.000000
3110,0.000000
3111,0.000000
3112,0.000000
3113,0.000000
3114,0.000000
3115,0.000000
3116,0.000000
3117,0.000000
3118,0.000000
3119,0.000000
3120,0.000000
3121,0.000000
3122,0.000000
3123,0.000000
3124,0.000000
3125,0.000000
3126,0.000000
3127,0.000000
3128,0.000000
3129,0.000000
3130,0.000000
3131,0.000000
3132,0.000000
3133,0.000000
3134,0.000000
3135,0.000000
3136,0.000000
3137,0.000000
3138,0.000000
3139,0.000000
3140,0.000000
3141,0.000000
3142,0.000000
3143,0.000000
3144,0.000000
3145,0.000000
3146,0.000000
3147,0.000000
3148,0.000000
3149,0.000000
3150,0.000000
3151,0.000000
3152,0.000000
3153,0.000000
3154,0.000000
3155,0.000000
3156,0.000000
3157,0.000000
3158,0.000000
3159,0.000000
3160,0.000000
3161,0.000000
3162,0.000000
3163,0.000000
3164,0.000000
3165,0.000000
3166,0.000000
3167,0.000000
3168,0.000000
3169,0.000000
3170,0.000000
3171,0.000000
3172,0.000000
3173,0.000000
3174,0.000000
3175,0.000000
3176,0.000000
3177,0.000000
3178,0.000000
3179,0.000000
3180,0.000000
3181,0.000000
3182,0.000000
3183,0.000000
3184,0.000000
3185,0.000000
3186,0.000000
3187,0.000000
3188,0.000000
3189,0.000000
3190,0.000000
3191,0.000000
3192,0.000000
3193,0.000000
3194,0.000000
3195,0.000000
3196,0.000000
3197,0.000000
3198,0.000000
3199,0.000000
3200,0.000000
3201,0.000000
3202,0.000000
3203,0.000000
3204,0.000000
3205,0.000000
3206,0.000000
3207,0.000000
3208,0.000000
3209,0.000000
3210,0.000000
3211,0.000000
3212,0.000000
3213,0.000000
3214,0.000000
3215,0.000000
3216,0.000000
3217,0.000000
3218,0.000000
3219,0.000000
3220,0.000000
3221,0.000000
3222,0.000000
3223,0.000000
3224,0.000000
3225,0.000000
3226,0.000000
3227,0.000000
3228,0.000000
3229,0.000000
3230,0.000000
3231,0.000000
3232,0.000000
3233,0.000000
3234,0.000000
3235,0.000000
3236,0.000000
3237,0.000000
3238,0.000000
3239,0.000000
3240,0.000000
3241,0.000000
3242,0.000000
3243,0.000000
3244,0.000000
3245,0.000000
3246,0.000000
3247,0.000000
3248,0.000000
3249,-3.906250
3250,0.000000
3251,0.000000
3252,0.000000
3253,0.000000
3254,0.000000
3255,-3.906250
3256,-3.906250
3257,0.000000
3258,-3.906250
3259,-3.906250
3260,-3.906250
3261,-3.906250
3262,0.000000
3263,-3.906250
3264,-3.906250
3265,-3.906250
3266,-3.906250
3267,-3.906250
3268,-3.906250
3269,-3.906250
3270,-3.906250
3271,-3.906250
3272,-3.906250
3273,-3.906250
3274,-3.906250
3275,-3.906250
3276,-3.906250
3277,-3.906250
3278,-3.906250
3279,-3.906250
3280,-3.906250
3281,-3.906250
3282,-3.906250
3283,-3.906250
3284,-3.906250
3285,-3.906250
3286,-3.906250
3287,-3.906250
3288,-3.906250
3289,-3.906250
3290,-3.906250
3291,-3.906250
3292,-3.906250
3293,-3.906250
3294,-3.906250
3295,-3.906250
3296,-3.906250
3297,-3.906250
3298,-3.906250
3299,-3.906250
3300,-3.906250
3301,-3.906250
3302,-3.906250
3303,-3.906250
3304,-3.906250
3305,-3.906250
3306,-3.906250
3307,-3.906250
3308,-3.906250
3309,-3.906250
3310,-3.906250
3311,-3.906250
3312,-3.906250
3313,-3.906250
3314,-3.906250
3315,-3.906250
3316,-3.906250
3317,-7.812500
3318,-3.906250
3319,-7.812500
3320,-3.906250
3321,-3.906250
3322,-7.812500
3323,-3.906250
3324,-7.812500
3325,-7.812500
3326,-7.812500
3327,-7.812500
3328,-7.812500
3329,-7.812500
3330,-7.812500
3331,-7.812500
3332,-7.812500
3333,-7.812500
3334,-7.812500
3335,-7.812500
3336,-7.812500
3337,-7.812500
3338,-7.812500
3339,-7.812500
3340,-7.812500
3341,-7.812500
3342,-7.812500
3343,-7.812500
3344,-7.812500
3345,-7.812500
3346,-7.812500
3347,-7.812500
3348,-7.812500
3349,-7.812500
3350,-7.812500
3351,-7.812500
3352,-7.812500
3353,-7.812500
3354,-7.812500
3355,-7.812500
3356,-7.812500
3357,-7.812500
3358,-7.812500
3359,-11.718750
3360,-7.812500
3361,-7.812500
3362,-7.812500
3363,-7.812500
3364,-7.812500
3365,-11.718750
3366,-11.718750
3367,-7.812500
3368,-7.812500
3369,-7.812500
3370,-11.718750
3371,-7.812500
3372,-7.812500
3373,-7.812500
3374,-11.718750
3375,-11.718750
3376,-11.718750
3377,-11.718750
3378,-11.718750
3379,-11.718750
3380,-11.718750
3381,-11.718750
3382,-11.718750
3383,-11.718750
3384,-11.718750
3385,-11.718750
3386,-11.718750
3387,-11.718750
3388,-11.718750
3389,-11.718750
3390,-11.718750
3391,-11.718750
3392,-11.718750
3393,-11.718750
3394,-11.718750
3395,-11.718750
3396,-11.718750
3397,-11.718750
3398,-11.718750
3399,-11.718750
3400,-11.718750
3401,-11.718750
3402,-11.718750
3403,-11.718750
3404,-11.718750
3405,-11.718750
3406,-11.718750
3407,-15.625000
3408,-11.718750
3409,-15.625000
3410,-11.718750
3411,-11.718750
3412,-11.718750
3413,-11.718750
3414,-15.625000
3415,-15.625000
3416,-15.625000
3417,-15.625000
3418,-15.625000
3419,-15.625000
3420,-15.625000
3421,-15.625000
3422,-15.625000
3423,-15.625000
3424,-15.625000
3425,-15.625000
3426,-15.625000
3427,-15.625000
3428,-15.625000
3429,-15.625000
3430,-15.625000
3431,-15.625000
3432,-15.625000
3433,-15.625000
3434,-15.625000
3435,-15.625000
3436,-15.625000
3437,-15.625000
3438,-15.625000
3439,-15.625000
3440,-15.625000
3441,-15.625000
3442,-15.625000
3443,-15.625000
3444,-15.625000
3445,-15.625000
3446,-15.625000
3447,-15.625000
3448,-15.625000
3449,-15.625000
3450,-15.625000
3451,-19.531250
3452,-15.625000
3453,-19.531250
3454,-19.531250
3455,-19.531250
3456,-19.531250
3457,-19.531250
3458,-19.531250
3459,-19.531250
3460,-19.531250
3461,-15.625000
3462,-19.531250
3463,-19.531250
3464,-19.531250
3465,-19.531250
3466,-19.531250
3467,-19.531250
3468,-19.531250
3469,-19.531250
3470,-19.531250
3471,-19.531250
3472,-19.531250
3473,-19.531250
3474,-19.531250
3475,-19.531250
3476,-19.531250
3477,-19.531250
3478,-19.531250
3479,-19.531250
3480,-19.531250
3481,-19.531250
3482,-19.531250
3483,-19.531250
3484,-19.531250
3485,-19.531250
3486,-19.531250
3487,-19.531250
3488,-23.437500
3489,-19.531250
3490,-19.531250
3491,-19.531250
3492,-19.531250
3493,-23.437500
3494,-23.437500
3495,-23.437500
3496,-23.437500
3497,-23.437500
3498,-23.437500
3499,-23.437500
3500,-23.437500
3501,-23.437500
3502,-23.437500
3503,-23.437500
3504,-23.437500
3505,-23.437500
3506,-23.437500
3507,-23.437500
3508,-23.437500
3509,-23.437500
3510,-23.437500
3511,-23.437500
3512,-23.437500
3513,-23.437500
3514,-23.437500
3515,-23.437500
3516,-23.437500
3517,-23.437500
3518,-23.437500
3519,-23.437500
3520,-23.437500
3521,-23.437500
3522,-23.437500
3523,-23.437500
3524,-23.437500
3525,-23.437500
3526,-23.437500
3527,-23.437500
3528,-23.437500
3529,-23.437500
3530,-23.437500
3531,-23.437500
3532,-23.437500
3533,-23.437500
3534,-23.437500
3535,-23.437500
3536,-23.437500
3537,-23.437500
3538,-23.437500
3539,-23.437500
3540,-23.437500
3541,-23.437500
3542,-23.437500
3543,-23.437500
3544,-23.437500
3545,-23.437500
3546,-23.437500
3547,-27.343750
3548,-23.437500
3549,-27.343750
3550,-23.437500
3551,-23.437500
3552,-23.437500
3553,-23.437500
3554,-23.437500
3555,-27.343750
3556,-23.437500
3557,-27.343750
3558,-27.343750
3559,-27.343750
3560,-23.437500
3561,-23.437500
3562,-27.343750
3563,-23.437500
3564,-23.437500
3565,-27.343750
3566,-27.343750
3567,-27.343750
3568,-27.343750
3569,-27.343750
3570,-27.343750
3571,-27.343750
3572,-27.343750
3573,-27.343750
3574,-27.343750
3575,-27.343750
3576,-27.343750
3577,-27.343750
3578,-27.343750
3579,-27.343750
3580,-27.343750
3581,-27.343750
3582,-27.343750
3583,-27.343750
3584,-27.343750
3585,-27.343750
3586,-27.343750
3587,-27.343750
3588,-27.343750
3589,-27.343750
3590,-27.343750
3591,-27.343750
3592,-27.343750
3593,-27.343750
3594,-27.343750
3595,-27.343750
3596,-27.343750
3597,-27.343750
3598,-27.343750
3599,-27.343750
3600,-27.343750
3601,-27.343750
3602,-27.343750
3603,-27.343750
3604,-27.343750
3605,-27.343750
3606,-27.343750
3607,-27.343750
3608,-27.343750
3609,-27.343750
3610,-27.343750
3611,-27.343750
3612,-27.343750
3613,-27.343750
3614,-27.343750
3615,-27.343750
3616,-27.343750
3617,-27.343750
3618,-27.343750
3619,-27.343750
3620,-27.343750
3621,-27.343750
3622,-27.343750
3623,-27.343750
3624,-27.343750
3625,-27.343750
3626,-27.343750
3627,-27.343750
3628,-27.343750
3629,-27.343750
3630,-27.343750
3631,-27.343750
3632,-27.343750
3633,-27.343750
3634,-27.343750
3635,-27.343750
3636,-27.343750
3637,-27.343750
3638,-27.343750
3639,-27.343750
3640,-27.343750
3641,-27.343750
3642,-27.343750
3643,-27.343750
3644,-27.343750
3645,-27.343750
3646,-27.343750
3647,-27.343750
3648,-27.343750
3649,-27.343750
3650,-27.343750
3651,-27.343750
3652,-27.343750
3653,-27.343750
3654,-27.343750
3655,-27.343750
3656,-27.343750
3657,-27.343750
3658,-27.343750
3659,-27.343750
3660,-27.343750
3661,-27.343750
3662,-27.343750
3663,-27.343750
3664,-27.343750
3665,-27.343750
3666,-27.343750
3667,-27.343750
3668,-27.343750
3669,-27.343750
3670,-27.343750
3671,-27.343750
3672,-27.343750
3673,-27.343750
3674,-27.343750
3675,-27.343750
3676,-27.343750
3677,-27.343750
3678,-27.343750
3679,-23.437500
3680,-27.343750
3681,-27.343750
3682,-27.343750
3683,-27.343750
3684,-27.343750
3685,-27.343750
3686,-27.343750
3687,-27.343750
3688,-27.343750
3689,-27.343750
3690,-27.343750
3691,-27.343750
3692,-27.343750
3693,-27.343750
3694,-27.343750
3695,-27.343750
3696,-27.343750
3697,-27.343750
3698,-27.343750
3699,-23.437500
3700,-27.343750
3701,-27.343750
3702,-27.343750
3703,-27.343750
3704,-23.437500
3705,-27.343750
3706,-23.437500
3707,-27.343750
3708,-27.343750
3709,-27.343750
3710,-27.343750
3711,-27.343750
3712,-27.343750
3713,-23.437500
3714,-27.343750
3715,-27.343750
3716,-27.343750
3717,-23.437500
3718,-23.437500
3719,-27.343750
3720,-23.437500
3721,-27.343750
3722,-23.437500
3723,-27.343750
3724,-23.437500
3725,-23.437500
3726,-23.437500
3727,-23.437500
3728,-23.437500
3729,-23.437500
3730,-27.343750
3731,-23.437500
3732,-23.437500
3733,-23.437500
3734,-23.437500
3735,-23.437500
3736,-23.437500
3737,-23.437500
3738,-23.437500
3739,-23.437500
3740,-23.437500
3741,-23.437500
3742,-23.437500
3743,-23.437500
3744,-23.437500
3745,-23.437500
3746,-23.437500
3747,-23.437500
3748,-23.437500
3749,-23.437500
3750,-23.437500
3751,-23.437500
3752,-23.437500
3753,-23.437500
3754,-23.437500
3755,-23.437500
3756,-23.437500
3757,-23.437500
3758,-23.437500
3759,-23.437500
3760,-23.437500
3761,-23.437500
3762,-23.437500
3763,-23.437500
3764,-23.437500
3765,-23.437500
3766,-23.437500
3767,-23.437500
3768,-23.437500
3769,-23.437500
3770,-23.437500
3771,-23.437500
3772,-23.437500
3773,-23.437500
3774,-23.437500
3775,-23.437500
3776,-19.531250
3777,-19.531250
3778,-23.437500
3779,-27.343750
3780,-19.531250
3781,-19.531250
3782,-19.531250
3783,-19.531250
3784,-19.531250
3785,-19.531250
3786,-19.531250
3787,-19.531250
3788,-19.531250
3789,-19.531250
3790,-19.531250
3791,-19.531250
3792,-19.531250
3793,-19.531250
3794,-19.531250
3795,-19.531250
3796,-19.531250
3797,-19.531250
3798,-19.531250
3799,-19.531250
3800,-15.625000
3801,-19.531250
3802,-19.531250
3803,-19.531250
3804,-19.531250
3805,-19.531250
3806,-19.531250
3807,-19.531250
3808,-19.531250
3809,-19.531250
3810,-19.531250
3811,-19.531250
3812,-19.531250
3813,-19.531250
3814,-15.625000
3815,-19.531250
3816,-19.531250
3817,-19.531250
3818,-19.531250
3819,-19.531250
3820,-19.531250
3821,-19.531250
3822,-19.531250
3823,-19.531250
3824,-19.531250
3825,-19.531250
3826,-15.625000
3827,-19.531250
3828,-19.531250
3829,-19.531250
3830,-15.625000
3831,-15.625000
3832,-19.531250
3833,-19.531250
3834,-19.531250
3835,-15.625000
3836,-15.625000
3837,-19.531250
3838,-15.625000
3839,-15.625000
3840,-15.625000
3841,-15.625000
3842,-15.625000
3843,-15.625000
3844,-15.625000
3845,-15.625000
3846,-15.625000
3847,-15.625000
3848,-19.531250
3849,-15.625000
3850,-15.625000
3851,-15.625000
3852,-15.625000
3853,-15.625000
3854,-15.625000
3855,-15.625000
3856,-15.625000
3857,-15.625000
3858,-15.625000
3859,-15.625000
3860,-15.625000
3861,-15.625000
3862,-15.625000
3863,-15.625000
3864,-15.625000
3865,-15.625000
3866,-15.625000
3867,-15.625000
3868,-15.625000
3869,-15.625000
3870,-15.625000
3871,-15.625000
3872,-15.625000
3873,-15.625000
3874,-15.625000
3875,-15.625000
3876,-15.625000
3877,-15.625000
3878,-11.718750
3879,-11.718750
3880,-11.718750
3881,-11.718750
3882,-15.625000
3883,-15.625000
3884,-15.625000
3885,-15.625000
3886,-11.718750
3887,-11.718750
3888,-11.718750
3889,-11.718750
3890,-11.718750
3891,-11.718750
3892,-11.718750
3893,-11.718750
3894,-11.718750
3895,-11.718750
3896,-11.718750
3897,-11.718750
3898,-11.718750
3899,-11.718750
3900,-11.718750
3901,-11.718750
3902,-11.718750
3903,-11.718750
3904,-11.718750
3905,-11.718750
3906,-11.718750
3907,-11.718750
3908,-11.718750
3909,-11.718750
3910,-11.718750
3911,-11.718750
3912,-11.718750
3913,-11.718750
3914,-11.718750
3915,-11.718750
3916,-11.718750
3917,-11.718750
3918,-11.718750
3919,-11.718750
3920,-11.718750
3921,-11.718750
3922,-11.718750
3923,-11.718750
3924,-11.718750
3925,-11.718750
3926,-11.718750
3927,-11.718750
3928,-11.718750
3929,-11.718750
3930,-7.812500
3931,-11.718750
3932,-7.812500
3933,-11.718750
3934,-11.718750
3935,-11.718750
3936,-11.718750
3937,-11.718750
3938,-11.718750
3939,-7.812500
3940,-7.812500
3941,-7.812500
3942,-7.812500
3943,-7.812500
3944,-7.812500
3945,-7.812500
3946,-7.812500
3947,-7.812500
3948,-7.812500
3949,-7.812500
3950,-7.812500
3951,-7.812500
3952,-7.812500
3953,-7.812500
3954,-7.812500
3955,-7.812500
3956,-7.812500
3957,-7.812500
3958,-7.812500
3959,-7.812500
3960,-7.812500
3961,-7.812500
3962,-7.812500
3963,-7.812500
3964,-7.812500
3965,-7.812500
3966,-7.812500
3967,-7.812500
3968,-7.812500
3969,-7.812500
3970,-7.812500
3971,-7.812500
3972,-7.812500
3973,-7.812500
3974,-7.812500
3975,-7.812500
3976,-7.812500
3977,-7.812500
3978,-7.812500
3979,-7.812500
3980,-7.812500
3981,-7.812500
3982,-7.812500
3983,-7.812500
3984,-7.812500
3985,-7.812500
3986,-3.906250
3987,-3.906250
3988,-7.812500
3989,-7.812500
3990,-3.906250
3991,-7.812500
3992,-3.906250
3993,-7.812500
3994,-7.812500
3995,-7.812500
3996,-3.906250
3997,-7.812500
3998,-3.906250
3999,-3.906250
4000,-3.906250
4001,-3.906250
4002,-3.906250
4003,-3.906250
4004,-3.906250
4005,-3.906250
4006,-3.906250
4007,-3.906250
4008,-3.906250
4009,-3.906250
4010,-3.906250
4011,-3.906250
4012,-3.906250
4013,-3.906250
4014,-3.906250
4015,-3.906250
4016,-3.906250
4017,-3.906250
4018,-3.906250
4019,-3.906250
4020,-3.906250
4021,-3.906250
4022,-3.906250
4023,-3.906250
4024,-3.906250
4025,-3.906250
4026,-3.906250
4027,-3.906250
4028,-3.906250
4029,-3.906250
4030,-3.906250
4031,-3.906250
4032,-3.906250
4033,-3.906250
4034,-3.906250
4035,-3.906250
4036,-3.906250
4037,-3.906250
4038,-3.906250
4039,-3.906250
4040,-3.906250
4041,-3.906250
4042,-3.906250
4043,-3.906250
4044,-3.906250
4045,-3.906250
4046,-3.906250
4047,-3.906250
4048,-3.906250
4049,-3.906250
4050,-3.906250
4051,-3.906250
4052,-3.906250
4053,0.000000
4054,-3.906250
4055,-3.906250
4056,-3.906250
4057,-3.906250
4058,-3.906250
4059,-3.906250
4060,0.000000
4061,0.000000
4062,0.000000
4063,-3.906250
4064,0.000000
4065,0.000000
4066,0.000000
4067,0.000000
4068,0.000000
4069,-3.906250
4070,0.000000
4071,0.000000
4072,0.000000
4073,0.000000
4074,-3.906250
4075,0.000000
4076,0.000000
4077,-3.906250
4078,0.000000
4079,-3.906250
4080,0.000000
4081,0.000000
4082,0.000000
4083,0.000000
4084,0.000000
4085,0.000000
4086,0.000000
4087,-3.906250
4088,0.000000
4089,0.000000
4090,0.000000
4091,0.000000
4092,0.000000
4093,0.000000
4094,0.000000
4095,0.000000
4096,0.000000
4097,0.000000
4098,0.000000
4099,0.000000
4100,0.000000
4101,0.000000
4102,0.000000
4103,0.000000
4104,0.000000
4105,0.000000
4106,0.000000
4107,0.000000
4108,0.000000
4109,0.000000
4110,0.000000
4111,0.000000
4112,0.000000
4113,0.000000
4114,0.000000
4115,0.000000
4116,0.000000
4117,0.000000
4118,0.000000
4119,0.000000
4120,0.000000
4121,0.000000
4122,0.000000
4123,0.000000
4124,0.000000
4125,0.000000
4126,0.000000
4127,0.000000
4128,0.000000
4129,0.000000
4130,0.000000
4131,0.000000
4132,0.000000
4133,0.000000
4134,0.000000
4135,0.000000
4136,0.000000
4137,0.000000
4138,0.000000
4139,0.000000
4140,0.000000
4141,0.000000
4142,0.000000
4143,0.000000
4144,0.000000
4145,0.000000
4146,0.000000
4147,0.000000
4148,0.000000
4149,0.000000
4150,0.000000
4151,0.000000
4152,0.000000
4153,0.000000
4154,0.000000
4155,3.906250
4156,0.000000
4157,0.000000
4158,0.000000
4159,0.000000
4160,0.000000
4161,0.000000
4162,0.000000
4163,0.000000
4164,0.000000
4165,0.000000
4166,0.000000
4167,0.000000
4168,0.000000
4169,0.000000
4170,0.000000
4171,0.000000
4172,0.000000
4173,0.000000
4174,0.000000
4175,0.000000
4176,0.000000
4177,0.000000
4178,0.000000
4179,0.000000
4180,0.000000
4181,0.000000
4182,0.000000
4183,0.000000
4184,0.000000
4185,0.000000
4186,0.000000
4187,0.000000
4188,0.000000
4189,0.000000
4190,0.000000
4191,0.000000
4192,0.000000
4193,0.000000
4194,0.000000
4195,0.000000
4196,0.000000
4197,0.000000
4198,0.000000
4199,0.000000
4200,0.000000
4201,0.000000
4202,0.000000
4203,0.000000
4204,0.000000
4205,0.000000
4206,0.000000
4207,0.000000
4208,0.000000
4209,0.000000
4210,0.000000
4211,0.000000
4212,0.000000
4213,0.000000
4214,0.000000
4215,0.000000
4216,0.000000
4217,0.000000
4218,0.000000
4219,0.000000
4220,0.000000
4221,0.000000
4222,0.000000
4223,0.000000
4224,0.000000
4225,0.000000
4226,0.000000
4227,0.000000
4228,0.000000
4229,0.000000
4230,0.000000
4231,0.000000
4232,0.000000
4233,0.000000
4234,-3.906250
4235,-3.906250
4236,0.000000
4237,-3.906250
4238,0.000000
4239,-3.906250
4240,-3.906250
4241,-3.906250
4242,0.000000
4243,0.000000
4244,-3.906250
4245,-3.906250
4246,-3.906250
4247,-3.906250
4248,-3.906250
4249,-3.906250
4250,0.000000
4251,-3.906250
4252,-3.906250
4253,-3.906250
4254,-3.906250
4255,-3.906250
4256,-3.906250
4257,-3.906250
4258,-3.906250
4259,-3.906250
4260,-3.906250
4261,-3.906250
4262,-3.906250
4263,-3.906250
4264,-3.906250
4265,-3.906250
4266,-3.906250
4267,-3.906250
4268,-3.906250
4269,-3.906250
4270,-3.906250
4271,-3.906250
4272,-3.906250
4273,-3.906250
4274,-3.906250
4275,-3.906250
4276,-3.906250
4277,-3.906250
4278,-3.906250
4279,-3.906250
4280,-3.906250
4281,-3.906250
4282,-3.906250
4283,-3.906250
4284,-3.906250
4285,-3.906250
4286,-3.906250
4287,-3.906250
4288,-3.906250
4289,-3.906250
4290,-3.906250
4291,-3.906250
4292,-3.906250
4293,-3.906250
4294,-3.906250
4295,-3.906250
4296,-3.906250
4297,-3.906250
4298,-3.906250
4299,-3.906250
4300,-3.906250
4301,-3.906250
4302,-3.906250
4303,-3.906250
4304,-3.906250
4305,-7.812500
4306,-3.906250
4307,-3.906250
4308,-3.906250
4309,-3.906250
4310,-3.906250
4311,-7.812500
4312,-7.812500
4313,-7.812500
4314,-7.812500
4315,-3.906250
4316,-3.906250
4317,-7.812500
4318,-7.812500
4319,-7.812500
4320,-7.812500
4321,-7.812500
4322,-7.812500
4323,-7.812500
4324,-7.812500
4325,-7.812500
4326,-7.812500
4327,-7.812500
4328,-7.812500
4329,-7.812500
4330,-7.812500
4331,-7.812500
4332,-7.812500
4333,-7.812500
4334,-7.812500
4335,-7.812500
4336,-7.812500
4337,-7.812500
4338,-7.812500
4339,-7.812500
4340,-7.812500
4341,-7.812500
4342,-7.812500
4343,-7.812500
4344,-7.812500
4345,-7.812500
4346,-7.812500
4347,-7.812500
4348,-7.812500
4349,-7.812500
4350,-7.812500
4351,-7.812500
4352,-7.812500
4353,-11.718750
4354,-11.718750
4355,-11.718750
4356,-11.718750
4357,-7.812500
4358,-7.812500
4359,-11.718750
4360,-11.718750
4361,-11.718750
4362,-11.718750
4363,-11.718750
4364,-11.718750
4365,-11.718750
4366,-11.718750
4367,-11.718750
4368,-11.718750
4369,-11.718750
4370,-11.718750
4371,-11.718750
4372,-11.718750
4373,-11.718750
4374,-11.718750
4375,-11.718750
4376,-11.718750
4377,-11.718750
4378,-11.718750
4379,-11.718750
4380,-11.718750
4381,-11.718750
4382,-11.718750
4383,-11.718750
4384,-11.718750
4385,-11.718750
4386,-11.718750
4387,-11.718750
4388,-11.718750
4389,-11.718750
4390,-11.718750
4391,-11.718750
4392,-11.718750
4393,-11.718750
4394,-15.625000
4395,-11.718750
4396,-11.718750
4397,-11.718750
4398,-15.625000
4399,-11.718750
4400,-11.718750
4401,-11.718750
4402,-15.625000
4403,-15.625000
4404,-15.625000
4405,-15.625000
4406,-15.625000
4407,-15.625000
4408,-15.625000
4409,-15.625000
4410,-15.625000
4411,-15.625000
4412,-15.625000
4413,-15.625000
4414,-15.625000
4415,-15.625000
4416,-15.625000
4417,-15.625000
4418,-15.625000
4419,-15.625000
4420,-15.625000
4421,-15.625000
4422,-15.625000
4423,-15.625000
4424,-15.625000
4425,-15.625000
4426,-15.625000
4427,-15.625000
4428,-15.625000
4429,-15.625000
4430,-15.625000
4431,-15.625000
4432,-15.625000
4433,-15.625000
4434,-15.625000
4435,-15.625000
4436,-19.531250
4437,-15.625000
4438,-19.531250
4439,-15.625000
4440,-15.625000
4441,-15.625000
4442,-15.625000
4443,-15.625000
4444,-15.625000
4445,-19.531250
4446,-19.531250
4447,-19.531250
4448,-19.531250
4449,-19.531250
4450,-19.531250
4451,-19.531250
4452,-19.531250
4453,-19.531250
4454,-19.531250
4455,-19.531250
4456,-19.531250
4457,-19.531250
4458,-19.531250
4459,-19.531250
4460,-19.531250
4461,-19.531250
4462,-19.531250
4463,-19.531250
4464,-19.531250
4465,-19.531250
4466,-19.531250
4467,-19.531250
4468,-19.531250
4469,-19.531250
4470,-19.531250
4471,-19.531250
4472,-19.531250
4473,-19.531250
4474,-19.531250
4475,-19.531250
4476,-19.531250
4477,-19.531250
4478,-19.531250
4479,-19.531250
4480,-19.531250
4481,-19.531250
4482,-19.531250
4483,-19.531250
4484,-19.531250
4485,-19.531250
4486,-23.437500
4487,-23.437500
4488,-23.437500
4489,-23.437500
4490,-23.437500
4491,-23.437500
4492,-23.437500
4493,-23.437500
4494,-23.437500
4495,-23.437500
4496,-23.437500
4497,-23.437500
4498,-23.437500
4499,-23.437500
4500,-23.437500
4501,-23.437500
4502,-23.437500
4503,-23.437500
4504,-23.437500
4505,-23.437500
4506,-23.437500
4507,-23.437500
4508,-23.437500
4509,-23.437500
4510,-23.437500
4511,-23.437500
4512,-23.437500
4513,-23.437500
4514,-23.437500
4515,-23.437500
4516,-23.437500
4517,-23.437500
4518,-23.437500
4519,-23.437500
4520,-23.437500
4521,-23.437500
4522,-23.437500
4523,-23.437500
4524,-23.437500
4525,-23.437500
4526,-23.437500
4527,-23.437500
4528,-23.437500
4529,-23.437500
4530,-23.437500
4531,-23.437500
4532,-23.437500
4533,-23.437500
4534,-27.343750
4535,-27.343750
4536,-23.437500
4537,-23.437500
4538,-23.437500
4539,-23.437500
4540,-23.437500
4541,-27.343750
4542,-23.437500
4543,-23.437500
4544,-23.437500
4545,-27.343750
4546,-27.343750
4547,-27.343750
4548,-27.343750
4549,-27.343750
4550,-23.437500
4551,-23.437500
4552,-27.343750
4553,-23.437500
4554,-27.343750
4555,-23.437500
4556,-27.343750
4557,-27.343750
4558,-27.343750
4559,-27.343750
4560,-27.343750
4561,-27.343750
4562,-27.343750
4563,-27.343750
4564,-27.343750
4565,-27.343750
4566,-27.343750
4567,-27.343750
4568,-27.343750
4569,-27.343750
4570,-27.343750
4571,-27.343750
4572,-27.343750
4573,-27.343750
4574,-27.343750
4575,-27.343750
4576,-27.343750
4577,-27.343750
4578,-27.343750
4579,-27.343750
4580,-27.343750
4581,-27.343750
4582,-27.343750
4583,-27.343750
4584,-27.343750
4585,-27.343750
4586,-27.343750
4587,-27.343750
4588,-27.343750
4589,-27.343750
4590,-27.343750
4591,-27.343750
4592,-27.343750
4593,-27.343750
4594,-27.343750
4595,-27.343750
4596,-27.343750
4597,-27.343750
4598,-27.343750
4599,-27.343750
4600,-27.343750
4601,-27.343750
4602,-27.343750
4603,-27.343750
4604,-27.343750
4605,-27.343750
4606,-27.343750
4607,-27.343750
4608,-27.343750
4609,-27.343750
4610,-27.343750
4611,-27.343750
4612,-27.343750
4613,-27.343750
4614,-27.343750
4615,-27.343750
4616,-27.343750
4617,-27.343750
4618,-27.343750
4619,-27.343750
4620,-27.343750
4621,-27.343750
4622,-27.343750
4623,-27.343750
4624,-27.343750
4625,-27.343750
4626,-27.343750
4627,-27.343750
4628,-27.343750
4629,-27.343750
4630,-27.343750
4631,-27.343750
4632,-27.343750
4633,-27.343750
4634,-27.343750
4635,-27.343750
4636,-27.343750
4637,-27.343750
4638,-27.343750
4639,-27.343750
4640,-27.343750
4641,-27.343750
4642,-27.343750
4643,-27.343750
4644,-27.343750
4645,-27.343750
4646,-27.343750
4647,-27.343750
4648,-27.343750
4649,-27.343750
4650,-27.343750
4651,-27.343750
4652,-27.343750
4653,-27.343750
4654,-27.343750
4655,-27.343750
4656,-27.343750
4657,-27.343750
4658,-27.343750
4659,-27.343750
4660,-27.343750
4661,-27.343750
4662,-27.343750
4663,-27.343750
4664,-27.343750
4665,-27.343750
4666,-27.343750
4667,-27.343750
4668,-27.343750
4669,-27.343750
4670,-27.343750
4671,-27.343750
4672,-27.343750
4673,-27.343750
4674,-27.343750
4675,-27.343750
4676,-27.343750
4677,-27.343750
4678,-27.343750
4679,-27.343750
4680,-27.343750
4681,-27.343750
4682,-27.343750
4683,-27.343750
4684,-27.343750
4685,-27.343750
4686,-27.343750
4687,-27.343750
4688,-27.343750
4689,-27.343750
4690,-27.343750
4691,-27.343750
4692,-27.343750
4693,-27.343750
4694,-27.343750
4695,-27.343750
4696,-27.343750
4697,-27.343750
4698,-27.343750
4699,-23.437500
4700,-23.437500
4701,-23.437500
4702,-27.343750
4703,-27.343750
4704,-23.437500
4705,-27.343750
4706,-27.343750
4707,-27.343750
4708,-23.437500
4709,-23.437500
4710,-23.437500
4711,-23.437500
4712,-23.437500
4713,-23.437500
4714,-27.343750
4715,-23.437500
4716,-23.437500
4717,-23.437500
4718,-23.437500
4719,-23.437500
4720,-23.437500
4721,-23.437500
4722,-23.437500
4723,-23.437500
4724,-23.437500
4725,-23.437500
4726,-23.437500
4727,-23.437500
4728,-23.437500
4729,-23.437500
4730,-23.437500
4731,-23.437500
4732,-23.437500
4733,-23.437500
4734,-23.437500
4735,-23.437500
4736,-23.437500
4737,-23.437500
4738,-23.437500
4739,-23.437500
4740,-23.437500
4741,-23.437500
4742,-23.437500
4743,-23.437500
4744,-23.437500
4745,-23.437500
4746,-23.437500
4747,-23.437500
4748,-23.437500
4749,-23.437500
4750,-23.437500
4751,-23.437500
4752,-23.437500
4753,-23.437500
4754,-23.437500
4755,-23.437500
4756,-23.437500
4757,-23.437500
4758,-23.437500
4759,-23.437500
4760,-23.437500
4761,-23.437500
4762,-23.437500
4763,-23.437500
4764,-23.437500
4765,-23.437500
4766,-23.437500
4767,-23.437500
4768,-23.437500
4769,-19.531250
4770,-23.437500
4771,-19.531250
4772,-19.531250
4773,-19.531250
4774,-19.531250
4775,-19.531250
4776,-23.437500
4777,-19.531250
4778,-19.531250
4779,-19.531250
4780,-19.531250
4781,-19.531250
4782,-19.531250
4783,-23.437500
4784,-19.531250
4785,-19.531250
4786,-19.531250
4787,-19.531250
4788,-19.531250
4789,-19.531250
4790,-19.531250
4791,-19.531250
4792,-19.531250
4793,-19.531250
4794,-19.531250
4795,-19.531250
4796,-19.531250
4797,-19.531250
4798,-19.531250
4799,-19.531250
4800,-19.531250
4801,-19.531250
4802,-19.531250
4803,-19.531250
4804,-19.531250
4805,-19.531250
4806,-19.531250
4807,-19.531250
4808,-19.531250
4809,-19.531250
4810,-19.531250
4811,-19.531250
4812,-19.531250
4813,-19.531250
4814,-19.531250
4815,-19.531250
4816,-19.531250
4817,-19.531250
4818,-19.531250
4819,-19.531250
4820,-19.531250
4821,-15.625000
4822,-15.625000
4823,-15.625000
4824,-19.531250
4825,-15.625000
4826,-15.625000
4827,-19.531250
4828,-15.625000
4829,-15.625000
4830,-15.625000
4831,-15.625000
4832,-15.625000
4833,-15.625000
4834,-15.625000
4835,-15.625000
4836,-15.625000
4837,-15.625000
4838,-15.625000
4839,-15.625000
4840,-15.625000
4841,-15.625000
4842,-15.625000
4843,-15.625000
4844,-15.625000
4845,-15.625000
4846,-15.625000
4847,-15.625000
4848,-15.625000
4849,-15.625000
4850,-15.625000
4851,-15.625000
4852,-15.625000
4853,-15.625000
4854,-15.625000
4855,-15.625000
4856,-15.625000
4857,-15.625000
4858,-15.625000
4859,-15.625000
4860,-15.625000
4861,-15.625000
4862,-15.625000
4863,-15.625000
4864,-15.625000
4865,-15.625000
4866,-11.718750
4867,-15.625000
4868,-15.625000
4869,-11.718750
4870,-11.718750
4871,-11.718750
4872,-11.718750
4873,-15.625000
4874,-15.625000
4875,-15.625000
4876,-11.718750
4877,-11.718750
4878,-11.718750
4879,-11.718750
4880,-11.718750
4881,-11.718750
4882,-11.718750
4883,-11.718750
4884,-11.718750
4885,-11.718750
4886,-11.718750
4887,-11.718750
4888,-11.718750
4889,-11.718750
4890,-11.718750
4891,-11.718750
4892,-11.718750
4893,-11.718750
4894,-11.718750
4895,-11.718750
4896,-11.718750
4897,-11.718750
4898,-11.718750
4899,-11.718750
4900,-11.718750
4901,-11.718750
4902,-11.718750
4903,-11.718750
4904,-11.718750
4905,-11.718750
4906,-11.718750
4907,-11.718750
4908,-11.718750
4909,-11.718750
4910,-11.718750
4911,-11.718750
4912,-11.718750
4913,-11.718750
4914,-11.718750
4915,-11.718750
4916,-11.718750
4917,-11.718750
4918,-7.812500
4919,-7.812500
4920,-7.812500
4921,-7.812500
4922,-7.812500
4923,-11.718750
4924,-11.718750
4925,-7.812500
4926,-11.718750
4927,-11.718750
4928,-7.812500
4929,-11.718750
4930,-7.812500
4931,-7.812500
4932,-7.812500
4933,-7.812500
4934,-7.812500
4935,-7.812500
4936,-7.812500
4937,-7.812500
4938,-7.812500
4939,-7.812500
4940,-7.812500
4941,-7.812500
4942,-7.812500
4943,-7.812500
4944,-7.812500
4945,-7.812500
4946,-7.812500
4947,-7.812500
4948,-7.812500
4949,-7.812500
4950,-7.812500
4951,-7.812500
4952,-7.812500
4953,-7.812500
4954,-7.812500
4955,-7.812500
4956,-7.812500
4957,-7.812500
4958,-7.812500
4959,-7.812500
4960,-7.812500
4961,-7.812500
4962,-7.812500
4963,-7.812500
4964,-7.812500
4965,-7.812500
4966,-7.812500
4967,-7.812500
4968,-7.812500
4969,-7.812500
4970,-7.812500
4971,-7.812500
4972,-7.812500
4973,-7.812500
4974,-7.812500
4975,-7.812500
4976,-7.812500
4977,-7.812500
4978,-7.812500
4979,-7.812500
4980,-7.812500
4981,-3.906250
4982,-7.812500
4983,-3.906250
4984,-3.906250
4985,-7.812500
4986,-3.906250
4987,-3.906250
4988,-3.906250
4989,-3.906250
4990,-3.906250
4991,-3.906250
4992,-3.906250
4993,-3.906250
4994,-3.906250
4995,-7.812500
4996,-3.906250
4997,-3.906250
4998,-3.906250
4999,-3.906250
5000,-3.906250
5001,-3.906250
5002,-3.906250
5003,-3.906250
5004,-3.906250
5005,-3.906250
5006,-7.812500
5007,-7.812500
5008,-3.906250
5009,-3.906250
5010,-3.906250
5011,-3.906250
5012,-3.906250
5013,-3.906250
5014,-3.906250
5015,-3.906250
5016,-3.906250
5017,-3.906250
5018,-3.906250
5019,-3.906250
5020,-3.906250
5021,-3.906250
5022,-3.906250
5023,-3.906250
5024,-3.906250
5025,-3.906250
5026,-3.906250
5027,-3.906250
5028,-3.906250
5029,-3.906250
5030,-3.906250
5031,-3.906250
5032,-3.906250
5033,-3.906250
5034,-3.906250
5035,-3.906250
5036,-3.906250
5037,-3.906250
5038,-3.906250
5039,-3.906250
5040,-3.906250
5041,-3.906250
5042,-3.906250
5043,-3.906250
5044,-3.906250
5045,-3.906250
5046,-3.906250
5047,-3.906250
5048,-3.906250
5049,-3.906250
5050,-3.906250
5051,0.000000
5052,0.000000
5053,-3.906250
5054,-3.906250
5055,-3.906250
5056,-3.906250
5057,-3.906250
5058,-3.906250
5059,-3.906250
5060,0.000000
5061,0.000000
5062,-3.906250
5063,0.000000
5064,0.000000
5065,-3.906250
5066,0.000000
5067,-3.906250
5068,0.000000
5069,0.000000
5070,0.000000
5071,0.000000
5072,0.000000
5073,0.000000
5074,0.000000
5075,0.000000
5076,0.000000
5077,0.000000
5078,0.000000
5079,0.000000
5080,0.000000
5081,0.000000
5082,0.000000
5083,0.000000
5084,0.000000
5085,0.000000
5086,0.000000
5087,0.000000
5088,0.000000
5089,0.000000
5090,0.000000
5091,0.000000
5092,0.000000
5093,0.000000
5094,0.000000
5095,0.000000
5096,0.000000
5097,0.000000
5098,0.000000
5099,0.000000
5100,0.000000
5101,0.000000
5102,0.000000
5103,0.000000
5104,0.000000
5105,0.000000
5106,0.000000
5107,0.000000
5108,0.000000
5109,0.000000
5110,0.000000
5111,0.000000
5112,0.000000
5113,0.000000
5114,0.000000
5115,0.000000
5116,0.000000
5117,0.000000
5118,0.000000
5119,0.000000
5120,0.000000
5121,0.000000
5122,0.000000
5123,0.000000
5124,0.000000
5125,0.000000
5126,0.000000
5127,0.000000
5128,0.000000
5129,0.000000
5130,0.000000
5131,0.000000
5132,0.000000
5133,0.000000
5134,0.000000
5135,0.000000
5136,0.000000
5137,0.000000
5138,0.000000
5139,0.000000
5140,0.000000
5141,0.000000
5142,0.000000
5143,0.000000
5144,0.000000
5145,0.000000
5146,0.000000
5147,0.000000
5148,0.000000
5149,0.000000
5150,0.000000
5151,0.000000
5152,0.000000
5153,0.000000
5154,0.000000
5155,0.000000
5156,0.000000
5157,0.000000
5158,0.000000
5159,0.000000
5160,0.000000
5161,0.000000
5162,0.000000
5163,0.000000
5164,0.000000
5165,0.000000
5166,0.000000
5167,0.000000
5168,0.000000
5169,0.000000
5170,0.000000
5171,0.000000
5172,0.000000
5173,0.000000
5174,0.000000
5175,0.000000
5176,0.000000
5177,0.000000
5178,0.000000
5179,0.000000
5180,0.000000
5181,0.000000
5182,0.000000
5183,0.000000
5184,0.000000
5185,0.000000
5186,0.000000
5187,0.000000
5188,0.000000
5189,0.000000
5190,0.000000
5191,0.000000
5192,0.000000
5193,0.000000
5194,0.000000
5195,0.000000
5196,0.000000
5197,0.000000
5198,0.000000
5199,0.000000
5200,0.000000
5201,0.000000
5202,0.000000
5203,0.000000
5204,0.000000
5205,0.000000
5206,0.000000
5207,0.000000
5208,0.000000
5209,0.000000
5210,0.000000
5211,0.000000
5212,0.000000
5213,0.000000
5214,0.000000
5215,0.000000
5216,0.000000
5217,0.000000
5218,0.000000
5219,0.000000
5220,0.000000
5221,0.000000
5222,0.000000
5223,0.000000
5224,0.000000
5225,0.000000
5226,0.000000
5227,0.000000
5228,0.000000
5229,0.000000
5230,-3.906250
5231,0.000000
5232,0.000000
5233,0.000000
5234,0.000000
5235,0.000000
5236,-3.906250
5237,-3.906250
5238,0.000000
5239,0.000000
5240,0.000000
5241,0.000000
5242,0.000000
5243,0.000000
5244,-3.906250
5245,-3.906250
5246,-3.906250
5247,-3.906250
5248,-3.906250
5249,-3.906250
5250,-3.906250
5251,-3.906250
5252,-3.906250
5253,-3.906250
5254,0.000000
5255,-3.906250
5256,-3.906250
5257,-3.906250
5258,-3.906250
5259,-3.906250
5260,-3.906250
5261,-3.906250
5262,-3.906250
5263,-3.906250
5264,-3.906250
5265,-3.906250
5266,-3.906250
5267,-3.906250
5268,-3.906250
5269,-3.906250
5270,-3.906250
5271,-3.906250
5272,-3.906250
5273,-3.906250
5274,-3.906250
5275,-3.906250
5276,-3.906250
5277,-3.906250
5278,-3.906250
5279,-3.906250
5280,-3.906250
5281,-3.906250
5282,-3.906250
5283,-3.906250
5284,-3.906250
5285,-3.906250
5286,-3.906250
5287,-3.906250
5288,-3.906250
5289,-3.906250
5290,-3.906250
5291,-3.906250
5292,-3.906250
5293,-7.812500
5294,-7.812500
5295,-3.906250
5296,-7.812500
5297,-3.906250
5298,-3.906250
5299,-7.812500
5300,-3.906250
5301,-3.906250
5302,-3.906250
5303,-3.906250
5304,-7.812500
5305,-3.906250
5306,-7.812500
5307,-7.812500
5308,-7.812500
5309,-3.906250
5310,-7.812500
5311,-7.812500
5312,-7.812500
5313,-7.812500
5314,-7.812500
5315,-7.812500
5316,-7.812500
5317,-7.812500
5318,-7.812500
5319,-7.812500
5320,-7.812500
5321,-7.812500
5322,-7.812500
5323,-7.812500
5324,-7.812500
5325,-7.812500
5326,-7.812500
5327,-7.812500
5328,-7.812500
5329,-7.812500
5330,-7.812500
5331,-7.812500
5332,-7.812500
5333,-7.812500
5334,-7.812500
5335,-7.812500
5336,-7.812500
5337,-7.812500
5338,-7.812500
5339,-7.812500
5340,-7.812500
5341,-7.812500
5342,-7.812500
5343,-7.812500
5344,-7.812500
5345,-7.812500
5346,-7.812500
5347,-7.812500
5348,-7.812500
5349,-11.718750
5350,-11.718750
5351,-11.718750
5352,-11.718750
5353,-11.718750
5354,-11.718750
5355,-11.718750
5356,-11.718750
5357,-11.718750
5358,-7.812500
5359,-11.718750
5360,-11.718750
5361,-11.718750
5362,-11.718750
5363,-11.718750
5364,-11.718750
5365,-11.718750
5366,-11.718750
5367,-11.718750
5368,-11.718750
5369,-11.718750
5370,-11.718750
5371,-11.718750
5372,-11.718750
5373,-11.718750
5374,-11.718750
5375,-11.718750
5376,-11.718750
5377,-11.718750
5378,-11.718750
5379,-11.718750
5380,-11.718750
5381,-11.718750
5382,-11.718750
5383,-11.718750
5384,-11.718750
5385,-11.718750
5386,-15.625000
5387,-11.718750
5388,-11.718750
5389,-11.718750
5390,-15.625000
5391,-15.625000
5392,-11.718750
5393,-15.625000
5394,-15.625000
5395,-15.625000
5396,-11.718750
5397,-15.625000
5398,-15.625000
5399,-15.625000
5400,-15.625000
5401,-15.625000
5402,-15.625000
5403,-15.625000
5404,-15.625000
5405,-15.625000
5406,-15.625000
5407,-15.625000
5408,-15.625000
5409,-15.625000
5410,-15.625000
5411,-15.625000
5412,-15.625000
5413,-15.625000
5414,-15.625000
5415,-15.625000
5416,-15.625000
5417,-15.625000
5418,-15.625000
5419,-15.625000
5420,-15.625000
5421,-15.625000
5422,-15.625000
5423,-15.625000
5424,-15.625000
5425,-15.625000
5426,-15.625000
5427,-15.625000
5428,-15.625000
5429,-19.531250
5430,-19.531250
5431,-19.531250
5432,-19.531250
5433,-19.531250
5434,-19.531250
5435,-19.531250
5436,-15.625000
5437,-15.625000
5438,-19.531250
5439,-19.531250
5440,-19.531250
5441,-19.531250
5442,-19.531250
5443,-19.531250
5444,-19.531250
5445,-19.531250
5446,-19.531250
5447,-19.531250
5448,-19.531250
5449,-19.531250
5450,-19.531250
5451,-19.531250
5452,-19.531250
5453,-19.531250
5454,-19.531250
5455,-19.531250
5456,-19.531250
5457,-19.531250
5458,-19.531250
5459,-19.531250
5460,-19.531250
5461,-19.531250
5462,-19.531250
5463,-19.531250
5464,-19.531250
5465,-19.531250
5466,-19.531250
5467,-19.531250
5468,-19.531250
5469,-19.531250
5470,-19.531250
5471,-19.531250
5472,-19.531250
5473,-19.531250
5474,-19.531250
5475,-19.531250
5476,-23.437500
5477,-19.531250
5478,-23.437500
5479,-23.437500
5480,-23.437500
5481,-23.437500
5482,-23.437500
5483,-23.437500
5484,-23.437500
5485,-23.437500
5486,-23.437500
5487,-23.437500
5488,-23.437500
5489,-23.437500
5490,-23.437500
5491,-23.437500
5492,-23.437500
5493,-23.437500
5494,-23.437500
5495,-23.437500
5496,-23.437500
5497,-23.437500
5498,-23.437500
5499,-23.437500
5500,-23.437500
5501,-23.437500
5502,-23.437500
5503,-23.437500
5504,-23.437500
5505,-23.437500
5506,-23.437500
5507,-23.437500
5508,-23.437500
5509,-23.437500
5510,-23.437500
5511,-23.437500
5512,-23.437500
5513,-23.437500
5514,-23.437500
5515,-23.437500
5516,-23.437500
5517,-23.437500
5518,-23.437500
5519,-23.437500
5520,-23.437500
5521,-27.343750
5522,-27.343750
5523,-23.437500
5524,-23.437500
5525,-23.437500
5526,-23.437500
5527,-23.437500
5528,-27.343750
5529,-27.343750
5530,-27.343750
5531,-27.343750
5532,-23.437500
5533,-27.343750
5534,-23.437500
5535,-27.343750
5536,-23.437500
5537,-23.437500
5538,-23.437500
5539,-27.343750
5540,-27.343750
5541,-27.343750
5542,-27.343750
5543,-27.343750
5544,-27.343750
5545,-27.343750
5546,-27.343750
5547,-27.343750
5548,-27.343750
5549,-27.343750
5550,-27.343750
5551,-27.343750
5552,-27.343750
5553,-27.343750
5554,-27.343750
5555,-27.343750
5556,-27.343750
5557,-27.343750
5558,-27.343750
5559,-27.343750
5560,-27.343750
5561,-27.343750
5562,-27.343750
5563,-27.343750
5564,-27.343750
5565,-27.343750
5566,-27.343750
5567,-27.343750
5568,-27.343750
5569,-27.343750
5570,-27.343750
5571,-27.343750
5572,-27.343750
5573,-27.343750
5574,-27.343750
5575,-27.343750
5576,-27.343750
5577,-27.343750
5578,-27.343750
5579,-27.343750
5580,-27.343750
5581,-27.343750
5582,-27.343750
5583,-27.343750
5584,-27.343750
5585,-27.343750
5586,-27.343750
5587,-27.343750
5588,-27.343750
5589,-27.343750
5590,-27.343750
5591,-27.343750
5592,-27.343750
5593,-27.343750
5594,-27.343750
5595,-27.343750
5596,-27.343750
5597,-27.343750
5598,-27.343750
5599,-27.343750
5600,-27.343750
5601,-27.343750
5602,-27.343750
5603,-27.343750
5604,-27.343750
5605,-27.343750
5606,-27.343750
5607,-27.343750
5608,-27.343750
5609,-27.343750
5610,-27.343750
5611,-27.343750
5612,-27.343750
5613,-27.343750
5614,-27.343750
5615,-27.343750
5616,-27.343750
5617,-27.343750
5618,-27.343750
5619,-27.343750
5620,-27.343750
5621,-27.343750
5622,-27.343750
5623,-27.343750
5624,-27.343750
5625,-27.343750
5626,-27.343750
5627,-27.343750
5628,-27.343750
5629,-27.343750
5630,-27.343750
5631,-27.343750
5632,-27.343750
5633,-27.343750
5634,-27.343750
5635,-27.343750
5636,-27.343750
5637,-27.343750
5638,-27.343750
5639,-27.343750
5640,-27.343750
5641,-27.343750
5642,-27.343750
5643,-27.343750
5644,-27.343750
5645,-27.343750
5646,-27.343750
5647,-27.343750
5648,-27.343750
5649,-27.343750
5650,-27.343750
5651,-27.343750
5652,-27.343750
5653,-27.343750
5654,-27.343750
5655,-27.343750
5656,-27.343750
5657,-27.343750
5658,-27.343750
5659,-27.343750
5660,-27.343750
5661,-27.343750
5662,-27.343750
5663,-27.343750
5664,-27.343750
5665,-27.343750
5666,-27.343750
5667,-27.343750
5668,-27.343750
5669,-27.343750
5670,-27.343750
5671,-27.343750
5672,-27.343750
5673,-27.343750
5674,-27.343750
5675,-27.343750
5676,-27.343750
5677,-27.343750
5678,-27.343750
5679,-27.343750
5680,-27.343750
5681,-23.437500
5682,-27.343750
5683,-27.343750
5684,-23.437500
5685,-23.437500
5686,-27.343750
5687,-27.343750
5688,-27.343750
5689,-27.343750
5690,-27.343750
5691,-27.343750
5692,-27.343750
5693,-27.343750
5694,-23.437500
5695,-23.437500
5696,-23.437500
5697,-23.437500
5698,-23.437500
5699,-27.343750
5700,-23.437500
5701,-23.437500
5702,-23.437500
5703,-23.437500
5704,-23.437500
5705,-23.437500
5706,-23.437500
5707,-27.343750
5708,-23.437500
5709,-23.437500
5710,-23.437500
5711,-23.437500
5712,-23.437500
5713,-23.437500
5714,-23.437500
5715,-23.437500
5716,-23.437500
5717,-23.437500
5718,-23.437500
5719,-23.437500
5720,-23.437500
5721,-23.437500
5722,-23.437500
5723,-23.437500
5724,-23.437500
5725,-23.437500
5726,-23.437500
5727,-23.437500
5728,-23.437500
5729,-23.437500
5730,-23.437500
5731,-23.437500
5732,-23.437500
5733,-23.437500
5734,-23.437500
5735,-23.437500
5736,-23.437500
5737,-23.437500
5738,-23.437500
5739,-23.437500
5740,-23.437500
5741,-23.437500
5742,-23.437500
5743,-23.437500
5744,-23.437500
5745,-23.437500
5746,-23.437500
5747,-23.437500
5748,-19.531250
5749,-23.437500
5750,-23.437500
5751,-23.437500
5752,-23.437500
5753,-23.437500
5754,-19.531250
5755,-23.437500
5756,-23.437500
5757,-23.437500
5758,-23.437500
5759,-23.437500
5760,-19.531250
5761,-19.531250
5762,-19.531250
5763,-19.531250
5764,-19.531250
5765,-19.531250
5766,-19.531250
5767,-19.531250
5768,-19.531250
5769,-19.531250
5770,-19.531250
5771,-19.531250
5772,-19.531250
5773,-19.531250
5774,-19.531250
5775,-19.531250
5776,-19.531250
5777,-19.531250
5778,-19.531250
5779,-19.531250
5780,-19.531250
5781,-19.531250
5782,-19.531250
5783,-19.531250
5784,-19.531250
5785,-19.531250
5786,-19.531250
5787,-19.531250
5788,-19.531250
5789,-19.531250
5790,-19.531250
5791,-19.531250
5792,-19.531250
5793,-19.531250
5794,-19.531250
5795,-19.531250
5796,-19.531250
5797,-19.531250
5798,-19.531250
5799,-19.531250
5800,-19.531250
5801,-19.531250
5802,-19.531250
5803,-19.531250
5804,-19.531250
5805,-19.531250
5806,-19.531250
5807,-19.531250
5808,-19.531250
5809,-19.531250
5810,-19.531250
5811,-19.531250
5812,-19.531250
5813,-15.625000
5814,-19.531250
5815,-15.625000
5816,-15.625000
5817,-15.625000
5818,-15.625000
5819,-15.625000
5820,-19.531250
5821,-15.625000
5822,-15.625000
5823,-15.625000
5824,-15.625000
5825,-15.625000
5826,-15.625000
5827,-15.625000
5828,-15.625000
5829,-15.625000
5830,-15.625000
5831,-15.625000
5832,-15.625000
5833,-15.625000
5834,-15.625000
5835,-15.625000
5836,-15.625000
5837,-15.625000
5838,-15.625000
5839,-15.625000
5840,-15.625000
5841,-15.625000
5842,-15.625000
5843,-15.625000
5844,-15.625000
5845,-15.625000
5846,-15.625000
5847,-15.625000
5848,-15.625000
5849,-15.625000
5850,-15.625000
5851,-15.625000
5852,-15.625000
5853,-15.625000
5854,-15.625000
5855,-15.625000
5856,-15.625000
5857,-11.718750
5858,-15.625000
5859,-15.625000
5860,-11.718750
5861,-11.718750
5862,-11.718750
5863,-11.718750
5864,-11.718750
5865,-11.718750
5866,-11.718750
5867,-11.718750
5868,-11.718750
5869,-11.718750
5870,-11.718750
5871,-11.718750
5872,-11.718750
5873,-11.718750
5874,-11.718750
5875,-11.718750
5876,-11.718750
5877,-11.718750
5878,-11.718750
5879,-11.718750
5880,-11.718750
5881,-11.718750
5882,-11.718750
5883,-11.718750
5884,-11.718750
5885,-11.718750
5886,-11.718750
5887,-11.718750
5888,-11.718750
5889,-11.718750
5890,-11.718750
5891,-11.718750
5892,-11.718750
5893,-11.718750
5894,-11.718750
5895,-11.718750
5896,-11.718750
5897,-11.718750
5898,-11.718750
5899,-11.718750
5900,-11.718750
5901,-11.718750
5902,-11.718750
5903,-11.718750
5904,-11.718750
5905,-11.718750
5906,-7.812500
5907,-11.718750
5908,-11.718750
5909,-11.718750
5910,-11.718750
5911,-7.812500
5912,-11.718750
5913,-7.812500
5914,-7.812500
5915,-7.812500
5916,-7.812500
5917,-7.812500
5918,-7.812500
5919,-7.812500
5920,-7.812500
5921,-7.812500
5922,-7.812500
5923,-7.812500
5924,-7.812500
5925,-7.812500
5926,-7.812500
5927,-7.812500
5928,-7.812500
5929,-7.812500
5930,-7.812500
5931,-7.812500
5932,-7.812500
5933,-7.812500
5934,-7.812500
5935,-7.812500
5936,-7.812500
5937,-7.812500
5938,-7.812500
5939,-7.812500
5940,-7.812500
5941,-7.812500
5942,-7.812500
5943,-7.812500
5944,-7.812500
5945,-7.812500
5946,-7.812500
5947,-7.812500
5948,-7.812500
5949,-7.812500
5950,-7.812500
5951,-7.812500
5952,-7.812500
5953,-7.812500
5954,-7.812500
5955,-7.812500
5956,-7.812500
5957,-7.812500
5958,-7.812500
5959,-7.812500
5960,-7.812500
5961,-7.812500
5962,-7.812500
5963,-7.812500
5964,-3.906250
5965,-3.906250
5966,-3.906250
5967,-7.812500
5968,-3.906250
5969,-3.906250
5970,-3.906250
5971,-3.906250
5972,-3.906250
5973,-3.906250
5974,-3.906250
5975,-3.906250
5976,-3.906250
5977,-3.906250
5978,-3.906250
5979,-3.906250
5980,-3.906250
5981,-3.906250
5982,-3.906250
5983,-3.906250
5984,-3.906250
5985,-3.906250
5986,-3.906250
5987,-3.906250
5988,-3.906250
5989,-3.906250
5990,-3.906250
5991,-3.906250
5992,-3.906250
5993,-3.906250
5994,-3.906250
5995,-3.906250
5996,-3.906250
5997,-3.906250
5998,-3.906250
5999,-3.906250
6000,-3.906250
6001,-3.906250
6002,-3.906250
6003,-3.906250
6004,-3.906250
6005,-3.906250
6006,-3.906250
6007,-3.906250
6008,-3.906250
6009,-3.906250
6010,-3.906250
6011,-3.906250
6012,-3.906250
6013,-3.906250
6014,-3.906250
6015,-3.906250
6016,-3.906250
6017,-3.906250
6018,-3.906250
6019,-3.906250
6020,-3.906250
6021,-3.906250
6022,-3.906250
6023,0.000000
6024,-3.906250
6025,-3.906250
6026,-3.906250
6027,-3.906250
6028,-3.906250
6029,-3.906250
6030,-3.906250
6031,-3.906250
6032,-3.906250
6033,0.000000
6034,0.000000
6035,0.000000
6036,0.000000
6037,0.000000
6038,0.000000
6039,0.000000
6040,-3.906250
6041,-3.906250
6042,0.000000
6043,0.000000
6044,0.000000
6045,0.000000
6046,0.000000
6047,0.000000
6048,0.000000
6049,-3.906250
6050,-3.906250
6051,-3.906250
6052,0.000000
6053,0.000000
6054,0.000000
6055,0.000000
6056,0.000000
6057,0.000000
6058,0.000000
6059,0.000000
6060,0.000000
6061,0.000000
6062,0.000000
6063,0.000000
6064,0.000000
6065,0.000000
6066,0.000000
6067,0.000000
6068,0.000000
6069,0.000000
6070,0.000000
6071,0.000000
6072,0.000000
6073,0.000000
6074,0.000000
6075,0.000000
6076,0.000000
6077,0.000000
6078,0.000000
6079,0.000000
6080,0.000000
6081,0.000000
6082,0.000000
6083,0.000000
6084,0.000000
6085,0.000000
6086,0.000000
6087,0.000000
6088,0.000000
6089,0.000000
6090,0.000000
6091,0.000000
6092,0.000000
6093,0.000000
6094,0.000000
6095,0.000000
6096,0.000000
6097,0.000000
6098,0.000000
6099,0.000000
6100,0.000000
6101,0.000000
6102,0.000000
6103,0.000000
6104,0.000000
6105,0.000000
6106,0.000000
6107,0.000000
6108,0.000000
6109,0.000000
6110,0.000000
6111,0.000000
6112,0.000000
6113,0.000000
6114,0.000000
6115,0.000000
6116,0.000000
6117,0.000000
6118,0.000000
6119,0.000000
6120,0.000000
6121,0.000000
6122,0.000000
6123,0.000000
6124,0.000000
6125,0.000000
6126,0.000000
6127,0.000000
6128,0.000000
6129,0.000000
6130,0.000000
6131,0.000000
6132,0.000000
6133,0.000000
6134,0.000000
6135,0.000000
6136,0.000000
6137,0.000000
6138,0.000000
6139,0.000000
6140,0.000000
6141,0.000000
6142,0.000000
6143,0.000000
6144,0.000000
6145,0.000000
6146,0.000000
6147,0.000000
6148,0.000000
6149,0.000000
6150,0.000000
6151,0.000000
6152,0.000000
6153,0.000000
6154,0.000000
6155,0.000000
6156,0.000000
6157,0.000000
6158,0.000000
6159,0.000000
6160,0.000000
6161,0.000000
6162,0.000000
6163,0.000000
6164,0.000000
6165,0.000000
6166,0.000000
6167,0.000000
6168,0.000000
6169,0.000000
6170,0.000000
6171,0.000000
6172,0.000000
6173,0.000000
6174,0.000000
6175,0.000000
6176,0.000000
6177,0.000000
6178,0.000000
6179,0.000000
6180,0.000000
6181,0.000000
6182,0.000000
6183,0.000000
6184,0.000000
6185,0.000000
6186,0.000000
6187,0.000000
6188,0.000000
6189,0.000000
6190,0.000000
6191,0.000000
6192,0.000000
6193,0.000000
6194,0.000000
6195,0.000000
6196,0.000000
6197,0.000000
6198,0.000000
6199,0.000000
6200,0.000000
6201,0.000000
6202,0.000000
6203,0.000000
6204,0.000000
6205,0.000000
6206,0.000000
6207,0.000000
6208,0.000000
6209,0.000000
6210,0.000000
6211,0.000000
6212,0.000000
6213,0.000000
6214,0.000000
6215,0.000000
6216,0.000000
6217,0.000000
6218,0.000000
6219,0.000000
6220,0.000000
6221,-3.906250
6222,-3.906250
6223,-3.906250
6224,-3.906250
6225,0.000000
6226,0.000000
6227,-3.906250
6228,0.000000
6229,0.000000
6230,-3.906250
6231,0.000000
6232,-3.906250
6233,-3.906250
6234,-3.906250
6235,-3.906250
6236,0.000000
6237,-3.906250
6238,0.000000
6239,-3.906250
6240,-3.906250
6241,-3.906250
6242,-3.906250
6243,-3.906250
6244,-3.906250
6245,-3.906250
6246,-3.906250
6247,-3.906250
6248,-3.906250
6249,-3.906250
6250,-3.906250
6251,-3.906250
6252,-3.906250
6253,-3.906250
6254,-3.906250
6255,-3.906250
6256,-3.906250
6257,-3.906250
6258,-3.906250
6259,-3.906250
6260,-3.906250
6261,-3.906250
6262,-3.906250
6263,-3.906250
6264,-3.906250
6265,-3.906250
6266,-3.906250
6267,-3.906250
6268,-3.906250
6269,-3.906250
6270,-3.906250
6271,-3.906250
6272,-3.906250
6273,-3.906250
6274,-3.906250
6275,-3.906250
6276,-3.906250
6277,-3.906250
6278,-3.906250
6279,-3.906250
6280,-3.906250
6281,-3.906250
6282,-3.906250
6283,-3.906250
6284,-3.906250
6285,-3.906250
6286,-3.906250
6287,-3.906250
6288,-3.906250
6289,-3.906250
6290,-3.906250
6291,-3.906250
6292,-7.812500
6293,-7.812500
6294,-7.812500
6295,-7.812500
6296,-7.812500
6297,-3.906250
6298,-7.812500
6299,-7.812500
6300,-7.812500
6301,-7.812500
6302,-7.812500
6303,-7.812500
6304,-7.812500
6305,-7.812500
6306,-7.812500
6307,-7.812500
6308,-7.812500
6309,-7.812500
6310,-7.812500
6311,-7.812500
6312,-7.812500
6313,-7.812500
6314,-7.812500
6315,-7.812500
6316,-7.812500
6317,-7.812500
6318,-7.812500
6319,-7.812500
6320,-7.812500
6321,-7.812500
6322,-7.812500
6323,-7.812500
6324,-7.812500
6325,-7.812500
6326,-7.812500
6327,-7.812500
6328,-7.812500
6329,-7.812500
6330,-7.812500
6331,-7.812500
6332,-11.718750
6333,-11.718750
6334,-11.718750
6335,-11.718750
6336,-11.718750
6337,-11.718750
6338,-11.718750
6339,-7.812500
6340,-7.812500
6341,-11.718750
6342,-11.718750
6343,-11.718750
6344,-11.718750
6345,-11.718750
6346,-11.718750
6347,-11.718750
6348,-11.718750
6349,-11.718750
6350,-11.718750
6351,-11.718750
6352,-11.718750
6353,-11.718750
6354,-11.718750
6355,-11.718750
6356,-11.718750
6357,-11.718750
6358,-11.718750
6359,-11.718750
6360,-11.718750
6361,-11.718750
6362,-11.718750
6363,-11.718750
6364,-11.718750
6365,-11.718750
6366,-11.718750
6367,-11.718750
6368,-11.718750
6369,-11.718750
6370,-11.718750
6371,-11.718750
6372,-11.718750
6373,-15.625000
6374,-15.625000
6375,-11.718750
6376,-11.718750
6377,-15.625000
6378,-11.718750
6379,-15.625000
6380,-11.718750
6381,-11.718750
6382,-15.625000
6383,-15.625000
6384,-11.718750
6385,-15.625000
6386,-15.625000
6387,-15.625000
6388,-15.625000
6389,-15.625000
6390,-15.625000
6391,-15.625000
6392,-15.625000
6393,-15.625000
6394,-15.625000
6395,-15.625000
6396,-15.625000
6397,-15.625000
6398,-15.625000
6399,-15.625000
6400,-15.625000
6401,-15.625000
6402,-15.625000
6403,-15.625000
6404,-15.625000
6405,-15.625000
6406,-15.625000
6407,-15.625000
6408,-15.625000
6409,-15.625000
6410,-15.625000
6411,-15.625000
6412,-15.625000
6413,-15.625000
6414,-15.625000
6415,-15.625000
6416,-19.531250
6417,-15.625000
6418,-15.625000
6419,-15.625000
6420,-19.531250
6421,-15.625000
6422,-15.625000
6423,-19.531250
6424,-19.531250
6425,-19.531250
6426,-19.531250
6427,-19.531250
6428,-19.531250
6429,-19.531250
6430,-19.531250
6431,-19.531250
6432,-19.531250
6433,-19.531250
6434,-19.531250
6435,-19.531250
6436,-19.531250
6437,-19.531250
6438,-19.531250
6439,-19.531250
6440,-19.531250
6441,-19.531250
6442,-19.531250
6443,-19.531250
6444,-19.531250
6445,-19.531250
6446,-19.531250
6447,-19.531250
6448,-19.531250
6449,-19.531250
6450,-19.531250
6451,-19.531250
6452,-19.531250
6453,-19.531250
6454,-19.531250
6455,-19.531250
6456,-19.531250
6457,-19.531250
6458,-19.531250
6459,-19.531250
6460,-19.531250
6461,-19.531250
6462,-19.531250
6463,-23.437500
6464,-23.437500
6465,-23.437500
6466,-23.437500
6467,-23.437500
6468,-23.437500
6469,-19.531250
6470,-23.437500
6471,-23.437500
6472,-23.437500
6473,-23.437500
6474,-23.437500
6475,-23.437500
6476,-23.437500
6477,-23.437500
6478,-23.437500
6479,-23.437500
6480,-23.437500
6481,-23.437500
6482,-23.437500
6483,-23.437500
6484,-23.437500
6485,-23.437500
6486,-23.437500
6487,-23.437500
6488,-23.437500
6489,-23.437500
6490,-23.437500
6491,-23.437500
6492,-23.437500
6493,-23.437500
6494,-23.437500
6495,-23.437500
6496,-23.437500
6497,-23.437500
6498,-23.437500
6499,-23.437500
6500,-23.437500
6501,-23.437500
6502,-23.437500
6503,-23.437500
6504,-23.437500
6505,-23.437500
6506,-23.437500
6507,-23.437500
6508,-23.437500
6509,-23.437500
6510,-23.437500
6511,-23.437500
6512,-23.437500
6513,-23.437500
6514,-23.437500
6515,-23.437500
6516,-23.437500
6517,-23.437500
6518,-23.437500
6519,-23.437500
6520,-23.437500
6521,-23.437500
6522,-23.437500
6523,-27.343750
6524,-27.343750
6525,-27.343750
6526,-23.437500
6527,-27.343750
6528,-23.437500
6529,-23.437500
6530,-23.437500
6531,-23.437500
6532,-27.343750
6533,-27.343750
6534,-27.343750
6535,-27.343750
6536,-27.343750
6537,-27.343750
6538,-27.343750
6539,-27.343750
6540,-27.343750
6541,-27.343750
6542,-23.437500
6543,-27.343750
6544,-27.343750
6545,-27.343750
6546,-27.343750
6547,-27.343750
6548,-27.343750
6549,-27.343750
6550,-27.343750
6551,-27.343750
6552,-27.343750
6553,-27.343750
6554,-27.343750
6555,-27.343750
6556,-27.343750
6557,-27.343750
6558,-27.343750
6559,-27.343750
6560,-27.343750
6561,-27.343750
6562,-27.343750
6563,-27.343750
6564,-27.343750
6565,-27.343750
6566,-27.343750
6567,-27.343750
6568,-27.343750
6569,-27.343750
6570,-27.343750
6571,-27.343750
6572,-27.343750
6573,-27.343750
6574,-27.343750
6575,-27.343750
6576,-27.343750
6577,-27.343750
6578,-27.343750
6579,-27.343750
6580,-27.343750
6581,-27.343750
6582,-27.343750
6583,-27.343750
6584,-27.343750
6585,-27.343750
6586,-27.343750
6587,-27.343750
6588,-27.343750
6589,-27.343750
6590,-27.343750
6591,-27.343750
6592,-27.343750
6593,-27.343750
6594,-27.343750
6595,-27.343750
6596,-27.343750
6597,-27.343750
6598,-27.343750
6599,-27.343750
6600,-27.343750
6601,-27.343750
6602,-27.343750
6603,-27.343750
6604,-27.343750
6605,-27.343750
6606,-27.343750
6607,-27.343750
6608,-27.343750
6609,-27.343750
6610,-27.343750
6611,-27.343750
6612,-27.343750
6613,-27.343750
6614,-27.343750
6615,-27.343750
6616,-27.343750
6617,-27.343750
6618,-27.343750
6619,-27.343750
6620,-27.343750
6621,-27.343750
6622,-27.343750
6623,-27.343750
6624,-27.343750
6625,-27.343750
6626,-27.343750
6627,-27.343750
6628,-27.343750
6629,-27.343750
6630,-27.343750
6631,-27.343750
6632,-27.343750
6633,-27.343750
6634,-27.343750
6635,-27.343750
6636,-27.343750
6637,-27.343750
6638,-27.343750
6639,-27.343750
6640,-27.343750
6641,-27.343750
6642,-27.343750
6643,-27.343750
6644,-27.343750
6645,-27.343750
6646,-27.343750
6647,-27.343750
6648,-27.343750
6649,-27.343750
6650,-27.343750
6651,-27.343750
6652,-27.343750
6653,-27.343750
6654,-27.343750
6655,-27.343750
6656,-23.437500
6657,-27.343750
6658,-27.343750
6659,-27.343750
6660,-27.343750
6661,-27.343750
6662,-27.343750
6663,-27.343750
6664,-27.343750
6665,-27.343750
6666,-27.343750
6667,-27.343750
6668,-27.343750
6669,-27.343750
6670,-27.343750
6671,-27.343750
6672,-27.343750
6673,-27.343750
6674,-27.343750
6675,-27.343750
6676,-27.343750
6677,-27.343750
6678,-27.343750
6679,-27.343750
6680,-23.437500
6681,-27.343750
6682,-23.437500
6683,-23.437500
6684,-23.437500
6685,-23.437500
6686,-23.437500
6687,-23.437500
6688,-23.437500
6689,-27.343750
6690,-23.437500
6691,-23.437500
6692,-23.437500
6693,-23.437500
6694,-23.437500
6695,-23.437500
6696,-23.437500
6697,-23.437500
6698,-23.437500
6699,-23.437500
6700,-23.437500
6701,-23.437500
6702,-23.437500
6703,-23.437500
6704,-23.437500
6705,-23.437500
6706,-23.437500
6707,-23.437500
6708,-23.437500
6709,-23.437500
6710,-23.437500
6711,-23.437500
6712,-23.437500
6713,-23.437500
6714,-23.437500
6715,-23.437500
6716,-23.437500
6717,-23.437500
6718,-23.437500
6719,-23.437500
6720,-23.437500
6721,-23.437500
6722,-23.437500
6723,-23.437500
6724,-23.437500
6725,-23.437500
6726,-23.437500
6727,-23.437500
6728,-23.437500
6729,-23.437500
6730,-23.437500
6731,-23.437500
6732,-23.437500
6733,-23.437500
6734,-23.437500
6735,-23.437500
6736,-23.437500
6737,-23.437500
6738,-23.437500
6739,-23.437500
6740,-23.437500
6741,-23.437500
6742,-19.531250
6743,-19.531250
6744,-19.531250
6745,-23.437500
6746,-23.437500
6747,-23.437500
6748,-23.437500
6749,-23.437500
6750,-23.437500
6751,-19.531250
6752,-19.531250
6753,-19.531250
6754,-19.531250
6755,-19.531250
6756,-19.531250
6757,-19.531250
6758,-19.531250
6759,-19.531250
6760,-19.531250
6761,-19.531250
6762,-19.531250
6763,-19.531250
6764,-19.531250
6765,-19.531250
6766,-19.531250
6767,-19.531250
6768,-19.531250
6769,-19.531250
6770,-19.531250
6771,-19.531250
6772,-19.531250
6773,-19.531250
6774,-19.531250
6775,-19.531250
6776,-19.531250
6777,-19.531250
6778,-19.531250
6779,-19.531250
6780,-19.531250
6781,-19.531250
6782,-19.531250
6783,-19.531250
6784,-15.625000
6785,-19.531250
6786,-19.531250
6787,-19.531250
6788,-19.531250
6789,-19.531250
6790,-19.531250
6791,-19.531250
6792,-19.531250
6793,-19.531250
6794,-19.531250
6795,-15.625000
6796,-19.531250
6797,-19.531250
6798,-19.531250
6799,-15.625000
6800,-19.531250
6801,-15.625000
6802,-15.625000
6803,-15.625000
6804,-15.625000
6805,-15.625000
6806,-15.625000
6807,-15.625000
6808,-15.625000
6809,-15.625000
6810,-15.625000
6811,-15.625000
6812,-15.625000
6813,-15.625000
6814,-15.625000
6815,-15.625000
6816,-15.625000
6817,-15.625000
6818,-15.625000
6819,-15.625000
6820,-15.625000
6821,-15.625000
6822,-15.625000
6823,-15.625000
6824,-15.625000
6825,-15.625000
6826,-15.625000
6827,-15.625000
6828,-15.625000
6829,-15.625000
6830,-15.625000
6831,-15.625000
6832,-15.625000
6833,-15.625000
6834,-15.625000
6835,-15.625000
6836,-15.625000
6837,-15.625000
6838,-15.625000
6839,-15.625000
6840,-15.625000
6841,-15.625000
6842,-15.625000
6843,-15.625000
6844,-15.625000
6845,-15.625000
6846,-11.718750
6847,-15.625000
6848,-11.718750
6849,-11.718750
6850,-15.625000
6851,-15.625000
6852,-15.625000
6853,-15.625000
6854,-11.718750
6855,-11.718750
6856,-11.718750
6857,-11.718750
6858,-15.625000
6859,-11.718750
6860,-11.718750
6861,-11.718750
6862,-11.718750
6863,-11.718750
6864,-11.718750
6865,-11.718750
6866,-11.718750
6867,-11.718750
6868,-11.718750
6869,-11.718750
6870,-11.718750
6871,-11.718750
6872,-11.718750
6873,-11.718750
6874,-11.718750
6875,-11.718750
6876,-11.718750
6877,-11.718750
6878,-11.718750
6879,-11.718750
6880,-11.718750
6881,-11.718750
6882,-11.718750
6883,-11.718750
6884,-11.718750
6885,-11.718750
6886,-11.718750
6887,-11.718750
6888,-11.718750
6889,-11.718750
6890,-11.718750
6891,-11.718750
6892,-11.718750
6893,-11.718750
6894,-7.812500
6895,-7.812500
6896,-7.812500
6897,-11.718750
6898,-11.718750
6899,-11.718750
6900,-11.718750
6901,-11.718750
6902,-11.718750
6903,-7.812500
6904,-7.812500
6905,-7.812500
6906,-7.812500
6907,-7.812500
6908,-7.812500
6909,-7.812500
6910,-7.812500
6911,-7.812500
6912,-7.812500
6913,-7.812500
6914,-7.812500
6915,-7.812500
6916,-7.812500
6917,-7.812500
6918,-7.812500
6919,-7.812500
6920,-7.812500
6921,-7.812500
6922,-7.812500
6923,-7.812500
6924,-7.812500
6925,-7.812500
6926,-7.812500
6927,-7.812500
6928,-7.812500
6929,-7.812500
6930,-7.812500
6931,-7.812500
6932,-7.812500
6933,-7.812500
6934,-7.812500
6935,-7.812500
6936,-7.812500
6937,-7.812500
6938,-7.812500
6939,-7.812500
6940,-7.812500
6941,-7.812500
6942,-7.812500
6943,-7.812500
6944,-7.812500
6945,-7.812500
6946,-7.812500
6947,-7.812500
6948,-7.812500
6949,-7.812500
6950,-7.812500
6951,-7.812500
6952,-3.906250
6953,-7.812500
6954,-7.812500
6955,-7.812500
6956,-3.906250
6957,-3.906250
6958,-3.906250
6959,-7.812500
6960,-7.812500
6961,-3.906250
6962,-3.906250
6963,-3.906250
6964,-3.906250
6965,-3.906250
6966,-3.906250
6967,-3.906250
6968,-3.906250
6969,-3.906250
6970,-3.906250
6971,-3.906250
6972,-3.906250
6973,-3.906250
6974,-3.906250
6975,-3.906250
6976,-3.906250
6977,-3.906250
6978,-3.906250
6979,-3.906250
6980,-7.812500
6981,-3.906250
6982,-3.906250
6983,-3.906250
6984,-3.906250
6985,-3.906250
6986,-3.906250
6987,-3.906250
6988,-3.906250
6989,-3.906250
6990,-3.906250
6991,-3.906250
6992,-3.906250
6993,-3.906250
6994,-3.906250
6995,-3.906250
6996,-3.906250
6997,-3.906250
6998,-3.906250
6999,-3.906250
7000,-3.906250
7001,-3.906250
7002,-3.906250
7003,-3.906250
7004,-3.906250
7005,-3.906250
7006,-3.906250
7007,-3.906250
7008,-3.906250
7009,-3.906250
7010,-3.906250
7011,-3.906250
7012,-3.906250
7013,-3.906250
7014,-3.906250
7015,-3.906250
7016,-3.906250
7017,-3.906250
7018,0.000000
7019,-3.906250
7020,-3.906250
7021,-3.906250
7022,-3.906250
7023,-3.906250
7024,-3.906250
7025,-3.906250
7026,-3.906250
7027,-3.906250
7028,0.000000
7029,-3.906250
7030,-3.906250
7031,0.000000
7032,0.000000
7033,0.000000
7034,0.000000
7035,0.000000
7036,0.000000
7037,-3.906250
7038,-3.906250
7039,-3.906250
7040,-3.906250
7041,0.000000
7042,0.000000
7043,0.000000
7044,0.000000
7045,0.000000
7046,0.000000
7047,-3.906250
7048,0.000000
7049,0.000000
7050,0.000000
7051,0.000000
7052,0.000000
7053,0.000000
7054,0.000000
7055,0.000000
7056,0.000000
7057,-3.906250
7058,0.000000
7059,0.000000
7060,0.000000
7061,0.000000
7062,0.000000
7063,0.000000
7064,0.000000
7065,0.000000
7066,0.000000
7067,0.000000
7068,0.000000
7069,0.000000
7070,0.000000
7071,0.000000
7072,0.000000
7073,0.000000
7074,0.000000
7075,0.000000
7076,0.000000
7077,0.000000
7078,0.000000
7079,0.000000
7080,0.000000
7081,0.000000
7082,0.000000
7083,0.000000
7084,0.000000
7085,0.000000
7086,0.000000
7087,0.000000
7088,0.000000
7089,0.000000
7090,0.000000
7091,0.000000
7092,0.000000
7093,0.000000
7094,0.000000
7095,0.000000
7096,0.000000
7097,0.000000
7098,0.000000
7099,0.000000
7100,0.000000
7101,0.000000
7102,0.000000
7103,0.000000
7104,0.000000
7105,0.000000
7106,0.000000
7107,0.000000
7108,0.000000
7109,0.000000
7110,0.000000
7111,0.000000
7112,0.000000
7113,0.000000
7114,0.000000
7115,0.000000
7116,0.000000
7117,0.000000
7118,0.000000
7119,0.000000
7120,0.000000
7121,0.000000
7122,0.000000
7123,0.000000
7124,0.000000
7125,0.000000
7126,0.000000
7127,0.000000
7128,0.000000
7129,0.000000
7130,0.000000
7131,0.000000
7132,0.000000
7133,0.000000
7134,0.000000
7135,0.000000
7136,0.000000
7137,0.000000
7138,0.000000
7139,0.000000
7140,0.000000
7141,0.000000
7142,0.000000
7143,0.000000
7144,0.000000
7145,0.000000
7146,0.000000
7147,0.000000
7148,0.000000
7149,0.000000
7150,0.000000
7151,0.000000
7152,0.000000
7153,0.000000
7154,0.000000
7155,0.000000
7156,0.000000
7157,0.000000
7158,0.000000
7159,0.000000
7160,0.000000
7161,0.000000
7162,0.000000
7163,0.000000
7164,0.000000
7165,0.000000
7166,0.000000
7167,0.000000
7168,0.000000
7169,0.000000
7170,0.000000
7171,0.000000
7172,0.000000
7173,0.000000
7174,0.000000
7175,0.000000
7176,0.000000
7177,0.000000
7178,0.000000
7179,0.000000
7180,0.000000
7181,0.000000
7182,0.000000
7183,0.000000
7184,0.000000
7185,0.000000
7186,0.000000
7187,0.000000
7188,0.000000
7189,0.000000
7190,0.000000
7191,0.000000
7192,0.000000
7193,0.000000
7194,0.000000
7195,0.000000
7196,0.000000
7197,0.000000
7198,0.000000
7199,0.000000
7200,0.000000
7201,0.000000
7202,0.000000
7203,0.000000
7204,0.000000
7205,0.000000
7206,0.000000
7207,0.000000
7208,0.000000
7209,0.000000
7210,0.000000
7211,0.000000
7212,0.000000
7213,-3.906250
7214,0.000000
7215,0.000000
7216,0.000000
7217,-3.906250
7218,-3.906250
7219,-3.906250
7220,0.000000
7221,-3.906250
7222,-3.906250
7223,0.000000
7224,0.000000
7225,-3.906250
7226,-3.906250
7227,-3.906250
7228,-3.906250
7229,-3.906250
7230,0.000000
7231,-3.906250
7232,-3.906250
7233,-3.906250
7234,-3.906250
7235,-3.906250
7236,-3.906250
7237,-3.906250
7238,-3.906250
7239,-3.906250
7240,-3.906250
7241,-3.906250
7242,-3.906250
7243,-3.906250
7244,-3.906250
7245,-3.906250
7246,-3.906250
7247,-3.906250
7248,-3.906250
7249,-3.906250
7250,-3.906250
7251,-3.906250
7252,-3.906250
7253,-3.906250
7254,-3.906250
7255,-3.906250
7256,-3.906250
7257,-3.906250
7258,-3.906250
7259,-3.906250
7260,-3.906250
7261,-3.906250
7262,-3.906250
7263,-3.906250
7264,-3.906250
7265,-3.906250
7266,-3.906250
7267,-3.906250
7268,-3.906250
7269,-3.906250
7270,-3.906250
7271,-3.906250
7272,-3.906250
7273,-3.906250
7274,-3.906250
7275,-3.906250
7276,-3.906250
7277,-3.906250
7278,-7.812500
7279,-3.906250
7280,-3.906250
7281,-3.906250
7282,-7.812500
7283,-7.812500
7284,-7.812500
7285,-7.812500
7286,-7.812500
7287,-7.812500
7288,-7.812500
7289,-7.812500
7290,-7.812500
7291,-7.812500
7292,-7.812500
7293,-7.812500
7294,-7.812500
7295,-7.812500
7296,-7.812500
7297,-7.812500
7298,-7.812500
7299,-7.812500
7300,-7.812500
7301,-7.812500
7302,-7.812500
7303,-7.812500
7304,-7.812500
7305,-7.812500
7306,-7.812500
7307,-7.812500
7308,-7.812500
7309,-7.812500
7310,-7.812500
7311,-7.812500
7312,-7.812500
7313,-7.812500
7314,-7.812500
7315,-7.812500
7316,-7.812500
7317,-7.812500
7318,-7.812500
7319,-7.812500
7320,-7.812500
7321,-7.812500
7322,-7.812500
7323,-7.812500
7324,-7.812500
7325,-7.812500
7326,-7.812500
7327,-11.718750
7328,-11.718750
7329,-7.812500
7330,-11.718750
7331,-11.718750
7332,-11.718750
7333,-11.718750
7334,-11.718750
7335,-11.718750
7336,-11.718750
7337,-11.718750
7338,-11.718750
7339,-11.718750
7340,-11.718750
7341,-11.718750
7342,-11.718750
7343,-11.718750
7344,-11.718750
7345,-11.718750
7346,-11.718750
7347,-11.718750
7348,-11.718750
7349,-11.718750
7350,-11.718750
7351,-11.718750
7352,-11.718750
7353,-11.718750
7354,-11.718750
7355,-11.718750
7356,-11.718750
7357,-11.718750
7358,-11.718750
7359,-11.718750
7360,-11.718750
7361,-11.718750
7362,-15.625000
7363,-11.718750
7364,-11.718750
7365,-11.718750
7366,-11.718750
7367,-15.625000
7368,-11.718750
7369,-11.718750
7370,-11.718750
7371,-11.718750
7372,-11.718750
7373,-15.625000
7374,-15.625000
7375,-15.625000
7376,-15.625000
7377,-15.625000
7378,-15.625000
7379,-15.625000
7380,-15.625000
7381,-15.625000
7382,-15.625000
7383,-15.625000
7384,-15.625000
7385,-15.625000
7386,-15.625000
7387,-15.625000
7388,-15.625000
7389,-15.625000
7390,-15.625000
7391,-15.625000
7392,-15.625000
7393,-15.625000
7394,-15.625000
7395,-15.625000
7396,-15.625000
7397,-15.625000
7398,-15.625000
7399,-15.625000
7400,-15.625000
7401,-15.625000
7402,-15.625000
7403,-15.625000
7404,-15.625000
7405,-15.625000
7406,-15.625000
7407,-15.625000
7408,-15.625000
7409,-15.625000
7410,-15.625000
7411,-15.625000
7412,-15.625000
7413,-19.531250
7414,-19.531250
7415,-19.531250
7416,-15.625000
7417,-19.531250
7418,-19.531250
7419,-19.531250
7420,-19.531250
7421,-19.531250
7422,-19.531250
7423,-19.531250
7424,-19.531250
7425,-19.531250
7426,-19.531250
7427,-19.531250
7428,-19.531250
7429,-19.531250
7430,-19.531250
7431,-19.531250
7432,-19.531250
7433,-19.531250
7434,-19.531250
7435,-19.531250
7436,-19.531250
7437,-19.531250
7438,-19.531250
7439,-19.531250
7440,-19.531250
7441,-19.531250
7442,-19.531250
7443,-19.531250
7444,-19.531250
7445,-19.531250
7446,-19.531250
7447,-19.531250
7448,-19.531250
7449,-19.531250
7450,-19.531250
7451,-19.531250
7452,-19.531250
7453,-19.531250
7454,-19.531250
7455,-19.531250
7456,-19.531250
7457,-23.437500
7458,-23.437500
7459,-23.437500
7460,-19.531250
7461,-23.437500
7462,-23.437500
7463,-23.437500
7464,-23.437500
7465,-23.437500
7466,-23.437500
7467,-23.437500
7468,-23.437500
7469,-23.437500
7470,-23.437500
7471,-23.437500
7472,-23.437500
7473,-23.437500
7474,-23.437500
7475,-23.437500
7476,-23.437500
7477,-23.437500
7478,-23.437500
7479,-23.437500
7480,-23.437500
7481,-23.437500
7482,-23.437500
7483,-23.437500
7484,-23.437500
7485,-23.437500
7486,-23.437500
7487,-23.437500
7488,-23.437500
7489,-23.437500
7490,-23.437500
7491,-23.437500
7492,-23.437500
7493,-23.437500
7494,-23.437500
7495,-23.437500
7496,-23.437500
7497,-23.437500
7498,-23.437500
7499,-23.437500
7500,-23.437500
7501,-23.437500
7502,-23.437500
7503,-27.343750
7504,-23.437500
7505,-23.437500
7506,-23.437500
7507,-23.437500
7508,-23.437500
7509,-23.437500
7510,-23.437500
7511,-23.437500
7512,-23.437500
7513,-27.343750
7514,-27.343750
7515,-27.343750
7516,-27.343750
7517,-27.343750
7518,-23.437500
7519,-27.343750
7520,-23.437500
7521,-23.437500
7522,-27.343750
7523,-27.343750
7524,-27.343750
7525,-27.343750
7526,-27.343750
7527,-27.343750
7528,-27.343750
7529,-27.343750
7530,-27.343750
7531,-27.343750
7532,-27.343750
7533,-27.343750
7534,-27.343750
7535,-27.343750
7536,-27.343750
7537,-27.343750
7538,-27.343750
7539,-27.343750
7540,-27.343750
7541,-27.343750
7542,-27.343750
7543,-27.343750
7544,-27.343750
7545,-27.343750
7546,-27.343750
7547,-27.343750
7548,-27.343750
7549,-27.343750
7550,-27.343750
7551,-27.343750
7552,-27.343750
7553,-27.343750
7554,-27.343750
7555,-27.343750
7556,-27.343750
7557,-27.343750
7558,-27.343750
7559,-27.343750
7560,-27.343750
7561,-27.343750
7562,-27.343750
7563,-27.343750
7564,-27.343750
7565,-27.343750
7566,-27.343750
7567,-27.343750
7568,-27.343750
7569,-27.343750
7570,-27.343750
7571,-27.343750
7572,-27.343750
7573,-27.343750
7574,-27.343750
7575,-27.343750
7576,-27.343750
7577,-27.343750
7578,-27.343750
7579,-27.343750
7580,-27.343750
7581,-27.343750
7582,-27.343750
7583,-27.343750
7584,-27.343750
7585,-27.343750
7586,-27.343750
7587,-27.343750
7588,-27.343750
7589,-27.343750
7590,-27.343750
7591,-27.343750
7592,-27.343750
7593,-27.343750
7594,-27.343750
7595,-27.343750
7596,-27.343750
7597,-27.343750
7598,-27.343750
7599,-27.343750
7600,-27.343750
7601,-27.343750
7602,-27.343750
7603,-27.343750
7604,-27.343750
7605,-27.343750
7606,-27.343750
7607,-27.343750
7608,-27.343750
7609,-27.343750
7610,-27.343750
7611,-27.343750
7612,-27.343750
7613,-27.343750
7614,-27.343750
7615,-27.343750
7616,-27.343750
7617,-27.343750
7618,-27.343750
7619,-27.343750
7620,-27.343750
7621,-27.343750
7622,-27.343750
7623,-27.343750
7624,-27.343750
7625,-27.343750
7626,-27.343750
7627,-27.343750
7628,-27.343750
7629,-27.343750
7630,-27.343750
7631,-27.343750
7632,-27.343750
7633,-27.343750
7634,-27.343750
7635,-27.343750
7636,-27.343750
7637,-27.343750
7638,-27.343750
7639,-27.343750
7640,-27.343750
7641,-27.343750
7642,-27.343750
7643,-27.343750
7644,-27.343750
7645,-27.343750
7646,-27.343750
7647,-27.343750
7648,-27.343750
7649,-27.343750
7650,-27.343750
7651,-27.343750
7652,-27.343750
7653,-27.343750
7654,-27.343750
7655,-27.343750
7656,-27.343750
7657,-27.343750
7658,-27.343750
7659,-27.343750
7660,-27.343750
7661,-27.343750
7662,-23.437500
7663,-27.343750
7664,-23.437500
7665,-27.343750
7666,-27.343750
7667,-27.343750
7668,-27.343750
7669,-27.343750
7670,-23.437500
7671,-27.343750
7672,-23.437500
7673,-23.437500
7674,-23.437500
7675,-27.343750
7676,-23.437500
7677,-23.437500
7678,-23.437500
7679,-23.437500
7680,-23.437500
7681,-23.437500
7682,-23.437500
7683,-23.437500
7684,-23.437500
7685,-23.437500
7686,-23.437500
7687,-23.437500
7688,-23.437500
7689,-23.437500
7690,-23.437500
7691,-23.437500
7692,-23.437500
7693,-23.437500
7694,-23.437500
7695,-23.437500
7696,-23.437500
7697,-23.437500
7698,-23.437500
7699,-23.437500
7700,-23.437500
7701,-23.437500
7702,-23.437500
7703,-23.437500
7704,-23.437500
7705,-23.437500
7706,-23.437500
7707,-23.437500
7708,-23.437500
7709,-23.437500
7710,-23.437500
7711,-23.437500
7712,-23.437500
7713,-23.437500
7714,-23.437500
7715,-23.437500
7716,-23.437500
7717,-23.437500
7718,-23.437500
7719,-23.437500
7720,-23.437500
7721,-23.437500
7722,-23.437500
7723,-23.437500
7724,-23.437500
7725,-23.437500
7726,-23.437500
7727,-23.437500
7728,-23.437500
7729,-23.437500
7730,-23.437500
7731,-23.437500
7732,-19.531250
7733,-23.437500
7734,-23.437500
7735,-23.437500
7736,-23.437500
7737,-19.531250
7738,-23.437500
7739,-19.531250
7740,-19.531250
7741,-23.437500
7742,-23.437500
7743,-23.437500
7744,-23.437500
7745,-19.531250
7746,-19.531250
7747,-19.531250
7748,-19.531250
7749,-19.531250
7750,-19.531250
7751,-23.437500
7752,-19.531250
7753,-23.437500
7754,-19.531250
7755,-19.531250
7756,-19.531250
7757,-19.531250
7758,-19.531250
7759,-19.531250
7760,-19.531250
7761,-19.531250
7762,-19.531250
7763,-19.531250
7764,-19.531250
7765,-19.531250
7766,-19.531250
7767,-19.531250
7768,-19.531250
7769,-19.531250
7770,-19.531250
7771,-19.531250
7772,-19.531250
7773,-19.531250
7774,-19.531250
7775,-19.531250
7776,-19.531250
7777,-19.531250
7778,-19.531250
7779,-19.531250
7780,-19.531250
7781,-19.531250
7782,-19.531250
7783,-19.531250
7784,-15.625000
7785,-19.531250
7786,-19.531250
7787,-19.531250
7788,-19.531250
7789,-15.625000
7790,-19.531250
7791,-19.531250
7792,-19.531250
7793,-19.531250
7794,-15.625000
7795,-15.625000
7796,-15.625000
7797,-15.625000
7798,-15.625000
7799,-15.625000
7800,-15.625000
7801,-19.531250
7802,-15.625000
7803,-15.625000
7804,-15.625000
7805,-15.625000
7806,-15.625000
7807,-15.625000
7808,-15.625000
7809,-15.625000
7810,-15.625000
7811,-15.625000
7812,-15.625000
7813,-15.625000
7814,-15.625000
7815,-15.625000
7816,-15.625000
7817,-15.625000
7818,-15.625000
7819,-15.625000
7820,-15.625000
7821,-15.625000
7822,-15.625000
7823,-15.625000
7824,-15.625000
7825,-15.625000
7826,-15.625000
7827,-15.625000
7828,-15.625000
7829,-15.625000
7830,-15.625000
7831,-15.625000
7832,-15.625000
7833,-11.718750
7834,-11.718750
7835,-11.718750
7836,-15.625000
7837,-15.625000
7838,-15.625000
7839,-15.625000
7840,-15.625000
7841,-15.625000
7842,-11.718750
7843,-11.718750
7844,-11.718750
7845,-11.718750
7846,-15.625000
7847,-15.625000
7848,-11.718750
7849,-11.718750
7850,-11.718750
7851,-11.718750
7852,-11.718750
7853,-11.718750
7854,-11.718750
7855,-11.718750
7856,-11.718750
7857,-11.718750
7858,-11.718750
7859,-11.718750
7860,-11.718750
7861,-11.718750
7862,-11.718750
7863,-11.718750
7864,-11.718750
7865,-11.718750
7866,-11.718750
7867,-11.718750
7868,-11.718750
7869,-11.718750
7870,-11.718750
7871,-11.718750
7872,-11.718750
7873,-11.718750
7874,-11.718750
7875,-11.718750
7876,-11.718750
7877,-11.718750
7878,-11.718750
7879,-11.718750
7880,-11.718750
7881,-11.718750
7882,-11.718750
7883,-11.718750
7884,-11.718750
7885,-11.718750
7886,-11.718750
7887,-11.718750
7888,-11.718750
7889,-11.718750
7890,-11.718750
7891,-11.718750
7892,-7.812500
7893,-7.812500
7894,-7.812500
7895,-11.718750
7896,-7.812500
7897,-11.718750
7898,-7.812500
7899,-7.812500
7900,-7.812500
7901,-7.812500
7902,-7.812500
7903,-7.812500
7904,-7.812500
7905,-7.812500
7906,-7.812500
7907,-7.812500
7908,-7.812500
7909,-7.812500
7910,-7.812500
7911,-7.812500
7912,-7.812500
7913,-7.812500
7914,-7.812500
7915,-7.812500
7916,-7.812500
7917,-7.812500
7918,-7.812500
7919,-7.812500
7920,-7.812500
7921,-7.812500
7922,-7.812500
7923,-7.812500
7924,-7.812500
7925,-7.812500
7926,-7.812500
7927,-7.812500
7928,-7.812500
7929,-7.812500
7930,-7.812500
7931,-7.812500
7932,-7.812500
7933,-7.812500
7934,-7.812500
7935,-7.812500
7936,-7.812500
7937,-7.812500
7938,-7.812500
7939,-7.812500
7940,-7.812500
7941,-7.812500
7942,-7.812500
7943,-7.812500
7944,-7.812500
7945,-7.812500
7946,-3.906250
7947,-7.812500
7948,-7.812500
7949,-7.812500
7950,-7.812500
7951,-7.812500
7952,-3.906250
7953,-3.906250
7954,-3.906250
7955,-3.906250
7956,-3.906250
7957,-3.906250
7958,-3.906250
7959,-3.906250
7960,-3.906250
7961,-3.906250
7962,-3.906250
7963,-3.906250
7964,-3.906250
7965,-3.906250
7966,-7.812500
7967,-3.906250
7968,-3.906250
7969,-3.906250
7970,-3.906250
7971,-3.906250
7972,-3.906250
7973,-3.906250
7974,-3.906250
7975,-3.906250
7976,-3.906250
7977,-3.906250
7978,-3.906250
7979,-3.906250
7980,-3.906250
7981,-3.906250
7982,-3.906250
7983,-3.906250
7984,-3.906250
7985,-3.906250
7986,-3.906250
7987,-3.906250
7988,-3.906250
7989,-3.906250
7990,-3.906250
7991,-3.906250
7992,-3.906250
7993,-3.906250
7994,-3.906250
7995,-3.906250
7996,-3.906250
7997,-3.906250
7998,-3.906250
7999,-3.906250
8000,-3.906250
8001,-3.906250
8002,-3.906250
8003,-3.906250
8004,-3.906250
8005,-3.906250
8006,-3.906250
8007,-3.906250
8008,-3.906250
8009,-3.906250
8010,-3.906250
8011,-3.906250
8012,-3.906250
8013,-3.906250
8014,0.000000
8015,-3.906250
8016,-3.906250
8017,-3.906250
8018,-3.906250
8019,-3.906250
8020,-3.906250
8021,0.000000
8022,-3.906250
8023,0.000000
8024,-3.906250
8025,0.000000
8026,-3.906250
8027,-3.906250
8028,-3.906250
8029,-3.906250
8030,0.000000
8031,0.000000
8032,0.000000
8033,0.000000
8034,0.000000
8035,0.000000
8036,0.000000
8037,0.000000
8038,0.000000
8039,0.000000
8040,0.000000
8041,0.000000
8042,0.000000
8043,0.000000
8044,0.000000
8045,0.000000
8046,0.000000
8047,0.000000
8048,0.000000
8049,0.000000
8050,0.000000
8051,0.000000
8052,0.000000
8053,0.000000
8054,0.000000
8055,0.000000
8056,0.000000
8057,0.000000
8058,0.000000
8059,0.000000
8060,0.000000
8061,0.000000
8062,0.000000
8063,0.000000
8064,0.000000
8065,0.000000
8066,0.000000
8067,0.000000
8068,0.000000
8069,0.000000
8070,0.000000
8071,0.000000
8072,0.000000
8073,0.000000
8074,0.000000
8075,0.000000
8076,0.000000
8077,0.000000
8078,0.000000
8079,0.000000
8080,0.000000
8081,0.000000
8082,0.000000
8083,0.000000
8084,0.000000
8085,0.000000
8086,0.000000
8087,0.000000
8088,0.000000
8089,0.000000
8090,0.000000
8091,0.000000
8092,0.000000
8093,0.000000
8094,0.000000
8095,0.000000
8096,0.000000
8097,0.000000
8098,0.000000
8099,0.000000
8100,0.000000
8101,0.000000
8102,0.000000
8103,0.000000
8104,0.000000
8105,0.000000
8106,0.000000
8107,0.000000
8108,0.000000
8109,0.000000
8110,0.000000
8111,0.000000
8112,0.000000
8113,0.000000
8114,0.000000
8115,0.000000
8116,0.000000
8117,0.000000
8118,3.906250
8119,0.000000
8120,0.000000
8121,0.000000
8122,0.000000
8123,0.000000
8124,0.000000
8125,0.000000
8126,0.000000
8127,0.000000
8128,0.000000
8129,0.000000
8130,0.000000
8131,0.000000
8132,0.000000
8133,0.000000
8134,0.000000
8135,0.000000
8136,0.000000
8137,0.000000
8138,0.000000
8139,0.000000
8140,0.000000
8141,0.000000
8142,0.000000
8143,0.000000
8144,0.000000
8145,0.000000
8146,0.000000
8147,0.000000
8148,0.000000
8149,0.000000
8150,0.000000
8151,0.000000
8152,0.000000
8153,0.000000
8154,0.000000
8155,0.000000
8156,0.000000
8157,0.000000
8158,0.000000
8159,0.000000
8160,0.000000
8161,0.000000
8162,0.000000
8163,0.000000
8164,0.000000
8165,0.000000
8166,0.000000
8167,0.000000
8168,0.000000
8169,0.000000
8170,0.000000
8171,0.000000
8172,0.000000
8173,0.000000
8174,0.000000
8175,0.000000
8176,0.000000
8177,0.000000
8178,0.000000
8179,0.000000
8180,0.000000
8181,0.000000
8182,0.000000
8183,0.000000
8184,0.000000
8185,0.000000
8186,0.000000
8187,0.000000
8188,0.000000
8189,0.000000
8190,0.000000
8191,0.000000
8192,0.000000
8193,0.000000
8194,0.000000
8195,0.000000
8196,0.000000
8197,0.000000
8198,0.000000
8199,0.000000
8200,0.000000
8201,0.000000
8202,0.000000
8203,-3.906250
8204,0.000000
8205,-3.906250
8206,0.000000
8207,-3.906250
8208,0.000000
8209,0.000000
8210,-3.906250
8211,-3.906250
8212,0.000000
8213,0.000000
8214,-3.906250
8215,-3.906250
8216,-3.906250
8217,-3.906250
8218,-3.906250
8219,0.000000
8220,-3.906250
8221,-3.906250
8222,-3.906250
8223,-3.906250
8224,-3.906250
8225,-3.906250
8226,-3.906250
8227,-3.906250
8228,-3.906250
8229,-3.906250
8230,-3.906250
8231,-3.906250
8232,-3.906250
8233,-3.906250
8234,-3.906250
8235,-3.906250
8236,-3.906250
8237,-3.906250
8238,-3.906250
8239,-3.906250
8240,-3.906250
8241,-3.906250
8242,-3.906250
8243,-3.906250
8244,-3.906250
8245,-3.906250
8246,-3.906250
8247,-3.906250
8248,-3.906250
8249,-3.906250
8250,-3.906250
8251,-3.906250
8252,-3.906250
8253,-3.906250
8254,-3.906250
8255,-3.906250
8256,-3.906250
8257,-3.906250
8258,-3.906250
8259,-3.906250
8260,-3.906250
8261,-3.906250
8262,-3.906250
8263,-3.906250
8264,-7.812500
8265,-3.906250
8266,-3.906250
8267,-3.906250
8268,-3.906250
8269,-3.906250
8270,-7.812500
8271,-3.906250
8272,-7.812500
8273,-7.812500
8274,-7.812500
8275,-7.812500
8276,-7.812500
8277,-7.812500
8278,-7.812500
8279,-7.812500
8280,-7.812500
8281,-7.812500
8282,-7.812500
8283,-7.812500
8284,-7.812500
8285,-7.812500
8286,-7.812500
8287,-7.812500
8288,-7.812500
8289,-7.812500
8290,-7.812500
8291,-7.812500
8292,-7.812500
8293,-7.812500
8294,-7.812500
8295,-7.812500
8296,-7.812500
8297,-7.812500
8298,-7.812500
8299,-7.812500
8300,-7.812500
8301,-7.812500
8302,-7.812500
8303,-7.812500
8304,-7.812500
8305,-7.812500
8306,-7.812500
8307,-7.812500
8308,-7.812500
8309,-7.812500
8310,-7.812500
8311,-7.812500
8312,-7.812500
8313,-7.812500
8314,-7.812500
8315,-7.812500
8316,-7.812500
8317,-7.812500
8318,-11.718750
8319,-11.718750
8320,-7.812500
8321,-11.718750
8322,-11.718750
8323,-11.718750
8324,-7.812500
8325,-11.718750
8326,-11.718750
8327,-11.718750
8328,-11.718750
8329,-11.718750
8330,-11.718750
8331,-11.718750
8332,-11.718750
8333,-11.718750
8334,-11.718750
8335,-11.718750
8336,-11.718750
8337,-11.718750
8338,-11.718750
8339,-11.718750
8340,-11.718750
8341,-11.718750
8342,-11.718750
8343,-11.718750
8344,-11.718750
8345,-11.718750
8346,-11.718750
8347,-11.718750
8348,-11.718750
8349,-11.718750
8350,-11.718750
8351,-11.718750
8352,-11.718750
8353,-11.718750
8354,-11.718750
8355,-11.718750
8356,-11.718750
8357,-11.718750
8358,-11.718750
8359,-11.718750
8360,-11.718750
8361,-11.718750
8362,-15.625000
8363,-15.625000
8364,-15.625000
8365,-15.625000
8366,-15.625000
8367,-15.625000
8368,-15.625000
8369,-15.625000
8370,-15.625000
8371,-15.625000
8372,-15.625000
8373,-15.625000
8374,-15.625000
8375,-15.625000
8376,-15.625000
8377,-15.625000
8378,-15.625000
8379,-15.625000
8380,-15.625000
8381,-15.625000
8382,-15.625000
8383,-15.625000
8384,-15.625000
8385,-15.625000
8386,-15.625000
8387,-15.625000
8388,-15.625000
8389,-15.625000
8390,-15.625000
8391,-15.625000
8392,-15.625000
8393,-15.625000
8394,-15.625000
8395,-15.625000
8396,-15.625000
8397,-19.531250
8398,-15.625000
8399,-19.531250
8400,-19.531250
8401,-19.531250
8402,-15.625000
8403,-19.531250
8404,-19.531250
8405,-19.531250
8406,-19.531250
8407,-19.531250
8408,-19.531250
8409,-19.531250
8410,-19.531250
8411,-19.531250
8412,-19.531250
8413,-19.531250
8414,-19.531250
8415,-19.531250
8416,-19.531250
8417,-19.531250
8418,-19.531250
8419,-19.531250
8420,-19.531250
8421,-19.531250
8422,-19.531250
8423,-19.531250
8424,-19.531250
8425,-19.531250
8426,-19.531250
8427,-19.531250
8428,-19.531250
8429,-19.531250
8430,-19.531250
8431,-19.531250
8432,-19.531250
8433,-19.531250
8434,-19.531250
8435,-19.531250
8436,-19.531250
8437,-19.531250
8438,-19.531250
8439,-19.531250
8440,-19.531250
8441,-19.531250
8442,-19.531250
8443,-19.531250
8444,-19.531250
8445,-19.531250
8446,-19.531250
8447,-23.437500
8448,-23.437500
8449,-23.437500
8450,-23.437500
8451,-23.437500
8452,-23.437500
8453,-23.437500
8454,-19.531250
8455,-23.437500
8456,-23.437500
8457,-23.437500
8458,-23.437500
8459,-23.437500
8460,-23.437500
8461,-23.437500
8462,-23.437500
8463,-23.437500
8464,-23.437500
8465,-23.437500
8466,-23.437500
8467,-23.437500
8468,-23.437500
8469,-23.437500
8470,-23.437500
8471,-23.437500
8472,-23.437500
8473,-23.437500
8474,-23.437500
8475,-23.437500
8476,-23.437500
8477,-23.437500
8478,-23.437500
8479,-23.437500
8480,-23.437500
8481,-23.437500
8482,-23.437500
8483,-23.437500
8484,-23.437500
8485,-23.437500
8486,-23.437500
8487,-23.437500
8488,-23.437500
8489,-23.437500
8490,-23.437500
8491,-23.437500
8492,-23.437500
8493,-23.437500
8494,-23.437500
8495,-27.343750
8496,-23.437500
8497,-27.343750
8498,-23.437500
8499,-27.343750
8500,-23.437500
8501,-23.437500
8502,-23.437500
8503,-27.343750
8504,-27.343750
8505,-27.343750
8506,-27.343750
8507,-27.343750
8508,-27.343750
8509,-27.343750
8510,-27.343750
8511,-27.343750
8512,-27.343750
8513,-27.343750
8514,-27.343750
8515,-27.343750
8516,-27.343750
8517,-27.343750
8518,-27.343750
8519,-27.343750
8520,-27.343750
8521,-27.343750
8522,-27.343750
8523,-27.343750
8524,-27.343750
8525,-27.343750
8526,-27.343750
8527,-27.343750
8528,-27.343750
8529,-27.343750
8530,-27.343750
8531,-27.343750
8532,-27.343750
8533,-27.343750
8534,-27.343750
8535,-27.343750
8536,-27.343750
8537,-27.343750
8538,-27.343750
8539,-27.343750
8540,-27.343750
8541,-27.343750
8542,-27.343750
8543,-27.343750
8544,-27.343750
8545,-27.343750
8546,-27.343750
8547,-27.343750
8548,-27.343750
8549,-27.343750
8550,-27.343750
8551,-27.343750
8552,-27.343750
8553,-27.343750
8554,-27.343750
8555,-27.343750
8556,-27.343750
8557,-27.343750
8558,-27.343750
8559,-27.343750
8560,-27.343750
8561,-27.343750
8562,-27.343750
8563,-27.343750
8564,-27.343750
8565,-27.343750
8566,-27.343750
8567,-27.343750
8568,-27.343750
8569,-27.343750
8570,-27.343750
8571,-27.343750
8572,-27.343750
8573,-27.343750
8574,-27.343750
8575,-27.343750
8576,-27.343750
8577,-27.343750
8578,-27.343750
8579,-27.343750
8580,-27.343750
8581,-27.343750
8582,-27.343750
8583,-27.343750
8584,-27.343750
8585,-27.343750
8586,-27.343750
8587,-27.343750
8588,-27.343750
8589,-27.343750
8590,-27.343750
8591,-27.343750
8592,-27.343750
8593,-27.343750
8594,-27.343750
8595,-27.343750
8596,-27.343750
8597,-27.343750
8598,-27.343750
8599,-27.343750
8600,-27.343750
8601,-27.343750
8602,-27.343750
8603,-27.343750
8604,-27.343750
8605,-27.343750
8606,-27.343750
8607,-27.343750
8608,-27.343750
8609,-27.343750
8610,-27.343750
8611,-27.343750
8612,-27.343750
8613,-27.343750
8614,-27.343750
8615,-27.343750
8616,-27.343750
8617,-27.343750
8618,-27.343750
8619,-27.343750
8620,-27.343750
8621,-27.343750
8622,-27.343750
8623,-27.343750
8624,-27.343750
8625,-27.343750
8626,-27.343750
8627,-27.343750
8628,-27.343750
8629,-27.343750
8630,-27.343750
8631,-27.343750
8632,-27.343750
8633,-27.343750
8634,-27.343750
8635,-27.343750
8636,-27.343750
8637,-27.343750
8638,-27.343750
8639,-27.343750
8640,-27.343750
8641,-27.343750
8642,-27.343750
8643,-27.343750
8644,-27.343750
8645,-27.343750
8646,-27.343750
8647,-27.343750
8648,-27.343750
8649,-27.343750
8650,-27.343750
8651,-27.343750
8652,-27.343750
8653,-27.343750
8654,-27.343750
8655,-27.343750
8656,-27.343750
8657,-27.343750
8658,-27.343750
8659,-27.343750
8660,-27.343750
8661,-27.343750
8662,-27.343750
8663,-27.343750
8664,-23.437500
8665,-27.343750
8666,-23.437500
8667,-27.343750
8668,-27.343750
8669,-27.343750
8670,-27.343750
8671,-27.343750
8672,-23.437500
8673,-23.437500
8674,-23.437500
8675,-23.437500
8676,-23.437500
8677,-27.343750
8678,-23.437500
8679,-27.343750
8680,-23.437500
8681,-23.437500
8682,-23.437500
8683,-23.437500
8684,-23.437500
8685,-23.437500
8686,-23.437500
8687,-23.437500
8688,-23.437500
8689,-23.437500
8690,-23.437500
8691,-23.437500
8692,-23.437500
8693,-23.437500
8694,-23.437500
8695,-23.437500
8696,-23.437500
8697,-23.437500
8698,-23.437500
8699,-23.437500
8700,-23.437500
8701,-23.437500
8702,-23.437500
8703,-23.437500
8704,-23.437500
8705,-23.437500
8706,-23.437500
8707,-23.437500
8708,-23.437500
8709,-23.437500
8710,-23.437500
8711,-23.437500
8712,-23.437500
8713,-23.437500
8714,-23.437500
8715,-23.437500
8716,-23.437500
8717,-23.437500
8718,-23.437500
8719,-23.437500
8720,-23.437500
8721,-23.437500
8722,-23.437500
8723,-23.437500
8724,-19.531250
8725,-19.531250
8726,-23.437500
8727,-23.437500
8728,-23.437500
8729,-23.437500
8730,-23.437500
8731,-19.531250
8732,-19.531250
8733,-19.531250
8734,-19.531250
8735,-19.531250
8736,-23.437500
8737,-23.437500
8738,-19.531250
8739,-19.531250
8740,-19.531250
8741,-23.437500
8742,-23.437500
8743,-19.531250
8744,-19.531250
8745,-19.531250
8746,-19.531250
8747,-19.531250
8748,-19.531250
8749,-19.531250
8750,-19.531250
8751,-19.531250
8752,-19.531250
8753,-19.531250
8754,-19.531250
8755,-19.531250
8756,-19.531250
8757,-19.531250
8758,-19.531250
8759,-19.531250
8760,-19.531250
8761,-19.531250
8762,-19.531250
8763,-19.531250
8764,-19.531250
8765,-19.531250
8766,-19.531250
8767,-19.531250
8768,-19.531250
8769,-19.531250
8770,-19.531250
8771,-19.531250
8772,-19.531250
8773,-19.531250
8774,-19.531250
8775,-19.531250
8776,-15.625000
8777,-19.531250
8778,-19.531250
8779,-19.531250
8780,-19.531250
8781,-15.625000
8782,-15.625000
8783,-15.625000
8784,-15.625000
8785,-15.625000
8786,-15.625000
8787,-15.625000
8788,-15.625000
8789,-15.625000
8790,-15.625000
8791,-15.625000
8792,-15.625000
8793,-15.625000
8794,-15.625000
8795,-15.625000
8796,-15.625000
8797,-15.625000
8798,-15.625000
8799,-15.625000
8800,-15.625000
8801,-15.625000
8802,-15.625000
8803,-15.625000
8804,-15.625000
8805,-15.625000
8806,-15.625000
8807,-15.625000
8808,-15.625000
8809,-15.625000
8810,-15.625000
8811,-15.625000
8812,-15.625000
8813,-15.625000
8814,-15.625000
8815,-15.625000
8816,-15.625000
8817,-15.625000
8818,-15.625000
8819,-15.625000
8820,-15.625000
8821,-15.625000
8822,-15.625000
8823,-15.625000
8824,-11.718750
8825,-15.625000
8826,-15.625000
8827,-15.625000
8828,-15.625000
8829,-15.625000
8830,-11.718750
8831,-11.718750
8832,-11.718750
8833,-11.718750
8834,-11.718750
8835,-11.718750
8836,-11.718750
8837,-11.718750
8838,-11.718750
8839,-15.625000
8840,-11.718750
8841,-11.718750
8842,-11.718750
8843,-11.718750
8844,-7.812500
8845,-7.812500
8846,-11.718750
8847,-11.718750
8848,-11.718750
8849,-11.718750
8850,-11.718750
8851,-11.718750
8852,-11.718750
8853,-11.718750
8854,-11.718750
8855,-11.718750
8856,-11.718750
8857,-11.718750
8858,-11.718750
8859,-11.718750
8860,-11.718750
8861,-11.718750
8862,-11.718750
8863,-11.718750
8864,-11.718750
8865,-11.718750
8866,-11.718750
8867,-11.718750
8868,-11.718750
8869,-11.718750
8870,-11.718750
8871,-11.718750
8872,-11.718750
8873,-7.812500
8874,-7.812500
8875,-11.718750
8876,-7.812500
8877,-7.812500
8878,-7.812500
8879,-11.718750
8880,-11.718750
8881,-7.812500
8882,-7.812500
8883,-7.812500
8884,-7.812500
8885,-11.718750
8886,-7.812500
8887,-7.812500
8888,-7.812500
8889,-7.812500
8890,-11.718750
8891,-7.812500
8892,-7.812500
8893,-7.812500
8894,-7.812500
8895,-7.812500
8896,-7.812500
8897,-7.812500
8898,-7.812500
8899,-7.812500
8900,-7.812500
8901,-7.812500
8902,-7.812500
8903,-7.812500
8904,-7.812500
8905,-7.812500
8906,-7.812500
8907,-7.812500
8908,-7.812500
8909,-7.812500
8910,-7.812500
8911,-7.812500
8912,-7.812500
8913,-7.812500
8914,-7.812500
8915,-7.812500
8916,-7.812500
8917,-7.812500
8918,-7.812500
8919,-7.812500
8920,-7.812500
8921,-7.812500
8922,-7.812500
8923,-7.812500
8924,-7.812500
8925,-7.812500
8926,-7.812500
8927,-7.812500
8928,-7.812500
8929,-7.812500
8930,-7.812500
8931,-7.812500
8932,-7.812500
8933,-7.812500
8934,-3.906250
8935,-7.812500
8936,-3.906250
8937,-3.906250
8938,-7.812500
8939,-3.906250
8940,-7.812500
8941,-7.812500
8942,-3.906250
8943,-3.906250
8944,-3.906250
8945,-3.906250
8946,-3.906250
8947,-7.812500
8948,-3.906250
8949,-3.906250
8950,-3.906250
8951,-3.906250
8952,-3.906250
8953,-3.906250
8954,-3.906250
8955,-3.906250
8956,-3.906250
8957,-3.906250
8958,-3.906250
8959,-3.906250
8960,-3.906250
8961,-3.906250
8962,-3.906250
8963,-3.906250
8964,-3.906250
8965,-3.906250
8966,-3.906250
8967,-3.906250
8968,-3.906250
8969,-3.906250
8970,-3.906250
8971,-3.906250
8972,-3.906250
8973,-3.906250
8974,-3.906250
8975,-3.906250
8976,-3.906250
8977,-3.906250
8978,-3.906250
8979,-3.906250
8980,-3.906250
8981,-3.906250
8982,-3.906250
8983,-3.906250
8984,-3.906250
8985,-3.906250
8986,-3.906250
8987,-3.906250
8988,-3.906250
8989,-3.906250
8990,-3.906250
8991,-3.906250
8992,-3.906250
8993,-3.906250
8994,-3.906250
8995,-3.906250
8996,-3.906250
8997,-3.906250
8998,-3.906250
8999,-3.906250
9000,-3.906250
9001,-3.906250
9002,-3.906250
9003,-3.906250
9004,-3.906250
9005,-3.906250
9006,0.000000
9007,0.000000
9008,0.000000
9009,-3.906250
9010,-3.906250
9011,-3.906250
9012,-3.906250
9013,-3.906250
9014,0.000000
9015,0.000000
9016,0.000000
9017,0.000000
9018,0.000000
9019,-3.906250
9020,-3.906250
9021,0.000000
9022,0.000000
9023,0.000000
9024,0.000000
9025,0.000000
9026,0.000000
9027,0.000000
9028,0.000000
9029,-3.906250
9030,0.000000
9031,0.000000
9032,0.000000
9033,0.000000
9034,0.000000
9035,0.000000
9036,0.000000
9037,0.000000
9038,0.000000
9039,0.000000
9040,0.000000
9041,0.000000
9042,0.000000
9043,0.000000
9044,0.000000
9045,0.000000
9046,0.000000
9047,0.000000
9048,0.000000
9049,0.000000
9050,0.000000
9051,0.000000
9052,0.000000
9053,0.000000
9054,0.000000
9055,0.000000
9056,0.000000
9057,0.000000
9058,0.000000
9059,0.000000
9060,0.000000
9061,0.000000
9062,0.000000
9063,0.000000
9064,0.000000
9065,0.000000
9066,0.000000
9067,0.000000
9068,0.000000
9069,0.000000
9070,0.000000
9071,0.000000
9072,0.000000
9073,0.000000
9074,0.000000
9075,0.000000
9076,0.000000
9077,0.000000
9078,0.000000
9079,0.000000
9080,0.000000
9081,0.000000
9082,0.000000
9083,0.000000
9084,0.000000
9085,0.000000
9086,0.000000
9087,0.000000
9088,0.000000
9089,0.000000
9090,0.000000
9091,0.000000
9092,0.000000
9093,0.000000
9094,0.000000
9095,0.000000
9096,0.000000
9097,0.000000
9098,0.000000
9099,0.000000
9100,0.000000
9101,0.000000
9102,0.000000
9103,0.000000
9104,0.000000
9105,0.000000
9106,0.000000
9107,0.000000
9108,0.000000
9109,0.000000
9110,0.000000
9111,0.000000
9112,0.000000
9113,0.000000
9114,0.000000
9115,0.000000
9116,0.000000
9117,0.000000
9118,0.000000
9119,0.000000
9120,0.000000
9121,0.000000
9122,0.000000
9123,0.000000
9124,0.000000
9125,0.000000
9126,0.000000
9127,0.000000
9128,0.000000
9129,0.000000
9130,0.000000
9131,0.000000
9132,0.000000
9133,0.000000
9134,0.000000
9135,0.000000
9136,0.000000
9137,0.000000
9138,0.000000
9139,0.000000
9140,0.000000
9141,0.000000
9142,0.000000
9143,0.000000
9144,0.000000
9145,0.000000
9146,0.000000
9147,0.000000
9148,0.000000
9149,0.000000
9150,0.000000
9151,0.000000
9152,0.000000
9153,0.000000
9154,0.000000
9155,0.000000
9156,0.000000
9157,0.000000
9158,0.000000
9159,0.000000
9160,0.000000
9161,0.000000
9162,0.000000
9163,0.000000
9164,0.000000
9165,0.000000
9166,0.000000
9167,0.000000
9168,0.000000
9169,0.000000
9170,0.000000
9171,0.000000
9172,0.000000
9173,0.000000
9174,0.000000
9175,0.000000
9176,0.000000
9177,0.000000
9178,0.000000
9179,-3.906250
9180,0.000000
9181,0.000000
9182,0.000000
9183,0.000000
9184,0.000000
9185,0.000000
9186,0.000000
9187,0.000000
9188,0.000000
9189,-3.906250
9190,-3.906250
9191,0.000000
9192,0.000000
9193,0.000000
9194,0.000000
9195,0.000000
9196,0.000000
9197,-3.906250
9198,-3.906250
9199,0.000000
9200,-3.906250
9201,0.000000
9202,0.000000
9203,-3.906250
9204,-3.906250
9205,-3.906250
9206,-3.906250
9207,-3.906250
9208,-3.906250
9209,-3.906250
9210,-3.906250
9211,-3.906250
9212,-3.906250
9213,-3.906250
9214,-3.906250
9215,-3.906250
9216,-3.906250
9217,-3.906250
9218,-3.906250
9219,-3.906250
9220,-3.906250
9221,-3.906250
9222,-3.906250
9223,-3.906250
9224,-3.906250
9225,-3.906250
9226,-3.906250
9227,-3.906250
9228,-3.906250
9229,-3.906250
9230,-3.906250
9231,-3.906250
9232,-3.906250
9233,-3.906250
9234,-3.906250
9235,-3.906250
9236,-3.906250
9237,-3.906250
9238,-3.906250
9239,-3.906250
9240,-3.906250
9241,-3.906250
9242,-3.906250
9243,-3.906250
9244,-3.906250
9245,-3.906250
9246,-3.906250
9247,-3.906250
9248,-3.906250
9249,-3.906250
9250,-3.906250
9251,-3.906250
9252,-3.906250
9253,-3.906250
9254,-3.906250
9255,-3.906250
9256,-3.906250
9257,-3.906250
9258,-3.906250
9259,-3.906250
9260,-7.812500
9261,-7.812500
9262,-3.906250
9263,-7.812500
9264,-7.812500
9265,-7.812500
9266,-7.812500
9267,-7.812500
9268,-7.812500
9269,-7.812500
9270,-7.812500
9271,-7.812500
9272,-7.812500
9273,-7.812500
9274,-7.812500
9275,-7.812500
9276,-7.812500
9277,-7.812500
9278,-7.812500
9279,-7.812500
9280,-7.812500
9281,-7.812500
9282,-7.812500
9283,-7.812500
9284,-7.812500
9285,-7.812500
9286,-7.812500
9287,-7.812500
9288,-7.812500
9289,-7.812500
9290,-7.812500
9291,-7.812500
9292,-7.812500
9293,-7.812500
9294,-7.812500
9295,-7.812500
9296,-7.812500
9297,-7.812500
9298,-7.812500
9299,-7.812500
9300,-7.812500
9301,-11.718750
9302,-11.718750
9303,-11.718750
9304,-11.718750
9305,-11.718750
9306,-11.718750
9307,-7.812500
9308,-7.812500
9309,-7.812500
9310,-11.718750
9311,-11.718750
9312,-11.718750
9313,-11.718750
9314,-11.718750
9315,-11.718750
9316,-11.718750
9317,-11.718750
9318,-11.718750
9319,-11.718750
9320,-11.718750
9321,-11.718750
9322,-11.718750
9323,-11.718750
9324,-11.718750
9325,-11.718750
9326,-11.718750
9327,-11.718750
9328,-11.718750
9329,-11.718750
9330,-11.718750
9331,-11.718750
9332,-11.718750
9333,-11.718750
9334,-11.718750
9335,-11.718750
9336,-11.718750
9337,-11.718750
9338,-11.718750
9339,-11.718750
9340,-11.718750
9341,-11.718750
9342,-11.718750
9343,-11.718750
9344,-15.625000
9345,-15.625000
9346,-11.718750
9347,-15.625000
9348,-11.718750
9349,-15.625000
9350,-15.625000
9351,-15.625000
9352,-15.625000
9353,-15.625000
9354,-15.625000
9355,-15.625000
9356,-15.625000
9357,-15.625000
9358,-15.625000
9359,-15.625000
9360,-15.625000
9361,-15.625000
9362,-15.625000
9363,-15.625000
9364,-15.625000
9365,-15.625000
9366,-15.625000
9367,-15.625000
9368,-15.625000
9369,-15.625000
9370,-15.625000
9371,-15.625000
9372,-15.625000
9373,-15.625000
9374,-15.625000
9375,-15.625000
9376,-15.625000
9377,-15.625000
9378,-15.625000
9379,-15.625000
9380,-15.625000
9381,-19.531250
9382,-19.531250
9383,-19.531250
9384,-15.625000
9385,-19.531250
9386,-19.531250
9387,-19.531250
9388,-15.625000
9389,-19.531250
9390,-19.531250
9391,-19.531250
9392,-19.531250
9393,-19.531250
9394,-19.531250
9395,-19.531250
9396,-19.531250
9397,-19.531250
9398,-19.531250
9399,-19.531250
9400,-19.531250
9401,-19.531250
9402,-19.531250
9403,-19.531250
9404,-19.531250
9405,-19.531250
9406,-19.531250
9407,-19.531250
9408,-19.531250
9409,-19.531250
9410,-19.531250
9411,-19.531250
9412,-19.531250
9413,-19.531250
9414,-19.531250
9415,-19.531250
9416,-19.531250
9417,-19.531250
9418,-19.531250
9419,-19.531250
9420,-19.531250
9421,-19.531250
9422,-19.531250
9423,-23.437500
9424,-19.531250
9425,-23.437500
9426,-19.531250
9427,-19.531250
9428,-23.437500
9429,-23.437500
9430,-23.437500
9431,-19.531250
9432,-23.437500
9433,-19.531250
9434,-23.437500
9435,-23.437500
9436,-23.437500
9437,-23.437500
9438,-23.437500
9439,-23.437500
9440,-19.531250
9441,-23.437500
9442,-23.437500
9443,-23.437500
9444,-23.437500
9445,-23.437500
9446,-23.437500
9447,-23.437500
9448,-23.437500
9449,-23.437500
9450,-23.437500
9451,-23.437500
9452,-23.437500
9453,-23.437500
9454,-23.437500
9455,-23.437500
9456,-23.437500
9457,-23.437500
9458,-23.437500
9459,-23.437500
9460,-23.437500
9461,-23.437500
9462,-23.437500
9463,-23.437500
9464,-23.437500
9465,-23.437500
9466,-23.437500
9467,-23.437500
9468,-23.437500
9469,-23.437500
9470,-23.437500
9471,-23.437500
9472,-23.437500
9473,-23.437500
9474,-23.437500
9475,-23.437500
9476,-23.437500
9477,-23.437500
9478,-23.437500
9479,-23.437500
9480,-23.437500
9481,-23.437500
9482,-23.437500
9483,-23.437500
9484,-23.437500
9485,-27.343750
9486,-27.343750
9487,-27.343750
9488,-23.437500
9489,-23.437500
9490,-23.437500
9491,-23.437500
9492,-23.437500
9493,-27.343750
9494,-27.343750
9495,-27.343750
9496,-27.343750
9497,-27.343750
9498,-27.343750
9499,-27.343750
9500,-27.343750
9501,-27.343750
9502,-27.343750
9503,-27.343750
9504,-27.343750
9505,-27.343750
9506,-27.343750
9507,-27.343750
9508,-27.343750
9509,-27.343750
9510,-27.343750
9511,-27.343750
9512,-27.343750
9513,-27.343750
9514,-27.343750
9515,-27.343750
9516,-27.343750
9517,-27.343750
9518,-27.343750
9519,-27.343750
9520,-27.343750
9521,-27.343750
9522,-27.343750
9523,-27.343750
9524,-27.343750
9525,-27.343750
9526,-27.343750
9527,-27.343750
9528,-27.343750
9529,-27.343750
9530,-27.343750
9531,-27.343750
9532,-27.343750
9533,-27.343750
9534,-27.343750
9535,-27.343750
9536,-27.343750
9537,-27.343750
9538,-27.343750
9539,-27.343750
9540,-27.343750
9541,-27.343750
9542,-27.343750
9543,-27.343750
9544,-27.343750
9545,-27.343750
9546,-27.343750
9547,-27.343750
9548,-27.343750
9549,-27.343750
9550,-27.343750
9551,-27.343750
9552,-27.343750
9553,-27.343750
9554,-27.343750
9555,-27.343750
9556,-27.343750
9557,-27.343750
9558,-27.343750
9559,-27.343750
9560,-27.343750
9561,-27.343750
9562,-27.343750
9563,-27.343750
9564,-27.343750
9565,-27.343750
9566,-27.343750
9567,-27.343750
9568,-27.343750
9569,-27.343750
9570,-27.343750
9571,-27.343750
9572,-27.343750
9573,-27.343750
9574,-27.343750
9575,-27.343750
9576,-27.343750
9577,-27.343750
9578,-27.343750
9579,-27.343750
9580,-27.343750
9581,-27.343750
9582,-27.343750
9583,-27.343750
9584,-27.343750
9585,-27.343750
9586,-27.343750
9587,-27.343750
9588,-27.343750
9589,-27.343750
9590,-27.343750
9591,-27.343750
9592,-27.343750
9593,-27.343750
9594,-27.343750
9595,-27.343750
9596,-27.343750
9597,-27.343750
9598,-27.343750
9599,-27.343750
9600,-27.343750
9601,-27.343750
9602,-27.343750
9603,-27.343750
9604,-27.343750
9605,-27.343750
9606,-27.343750
9607,-27.343750
9608,-27.343750
9609,-27.343750
9610,-27.343750
9611,-27.343750
9612,-27.343750
9613,-27.343750
9614,-27.343750
9615,-27.343750
9616,-27.343750
9617,-27.343750
9618,-27.343750
9619,-27.343750
9620,-27.343750
9621,-27.343750
9622,-27.343750
9623,-27.343750
9624,-27.343750
9625,-27.343750
9626,-27.343750
9627,-27.343750
9628,-27.343750
9629,-27.343750
9630,-27.343750
9631,-27.343750
9632,-27.343750
9633,-27.343750
9634,-27.343750
9635,-27.343750
9636,-27.343750
9637,-27.343750
9638,-23.437500
9639,-27.343750
9640,-27.343750
9641,-27.343750
9642,-27.343750
9643,-27.343750
9644,-27.343750
9645,-27.343750
9646,-27.343750
9647,-27.343750
9648,-23.437500
9649,-27.343750
9650,-23.437500
9651,-27.343750
9652,-23.437500
9653,-27.343750
9654,-27.343750
9655,-27.343750
9656,-27.343750
9657,-27.343750
9658,-27.343750
9659,-23.437500
9660,-23.437500
9661,-23.437500
9662,-23.437500
9663,-27.343750
9664,-23.437500
9665,-27.343750
9666,-23.437500
9667,-23.437500
9668,-23.437500
9669,-23.437500
9670,-23.437500
9671,-23.437500
9672,-23.437500
9673,-23.437500
9674,-23.437500
9675,-23.437500
9676,-23.437500
9677,-23.437500
9678,-23.437500
9679,-23.437500
9680,-23.437500
9681,-23.437500
9682,-23.437500
9683,-23.437500
9684,-23.437500
9685,-23.437500
9686,-23.437500
9687,-23.437500
9688,-23.437500
9689,-23.437500
9690,-23.437500
9691,-23.437500
9692,-23.437500
9693,-23.437500
9694,-23.437500
9695,-23.437500
9696,-23.437500
9697,-23.437500
9698,-23.437500
9699,-23.437500
9700,-23.437500
9701,-23.437500
9702,-23.437500
9703,-23.437500
9704,-23.437500
9705,-23.437500
9706,-23.437500
9707,-23.437500
9708,-23.437500
9709,-23.437500
9710,-23.437500
9711,-23.437500
9712,-23.437500
9713,-23.437500
9714,-23.437500
9715,-23.437500
9716,-23.437500
9717,-23.437500
9718,-23.437500
9719,-23.437500
9720,-19.531250
9721,-23.437500
9722,-19.531250
9723,-23.437500
9724,-23.437500
9725,-19.531250
9726,-19.531250
9727,-19.531250
9728,-19.531250
9729,-19.531250
9730,-19.531250
9731,-19.531250
9732,-19.531250
9733,-19.531250
9734,-19.531250
9735,-19.531250
9736,-19.531250
9737,-19.531250
9738,-19.531250
9739,-19.531250
9740,-19.531250
9741,-19.531250
9742,-19.531250
9743,-19.531250
9744,-19.531250
9745,-19.531250
9746,-19.531250
9747,-19.531250
9748,-19.531250
9749,-19.531250
9750,-19.531250
9751,-19.531250
9752,-19.531250
9753,-19.531250
9754,-19.531250
9755,-19.531250
9756,-19.531250
9757,-19.531250
9758,-19.531250
9759,-19.531250
9760,-19.531250
9761,-19.531250
9762,-19.531250
9763,-19.531250
9764,-19.531250
9765,-19.531250
9766,-15.625000
9767,-15.625000
9768,-15.625000
9769,-19.531250
9770,-19.531250
9771,-19.531250
9772,-19.531250
9773,-19.531250
9774,-15.625000
9775,-15.625000
9776,-15.625000
9777,-15.625000
9778,-15.625000
9779,-15.625000
9780,-15.625000
9781,-15.625000
9782,-15.625000
9783,-15.625000
9784,-15.625000
9785,-15.625000
9786,-15.625000
9787,-15.625000
9788,-15.625000
9789,-15.625000
9790,-15.625000
9791,-15.625000
9792,-15.625000
9793,-15.625000
9794,-15.625000
9795,-15.625000
9796,-15.625000
9797,-15.625000
9798,-15.625000
9799,-15.625000
9800,-15.625000
9801,-15.625000
9802,-15.625000
9803,-15.625000
9804,-15.625000
9805,-15.625000
9806,-15.625000
9807,-15.625000
9808,-15.625000
9809,-15.625000
9810,-15.625000
9811,-15.625000
9812,-15.625000
9813,-15.625000
9814,-15.625000
9815,-15.625000
9816,-11.718750
9817,-15.625000
9818,-11.718750
9819,-15.625000
9820,-11.718750
9821,-11.718750
9822,-11.718750
9823,-15.625000
9824,-11.718750
9825,-15.625000
9826,-11.718750
9827,-11.718750
9828,-11.718750
9829,-11.718750
9830,-11.718750
9831,-11.718750
9832,-11.718750
9833,-11.718750
9834,-11.718750
9835,-11.718750
9836,-11.718750
9837,-11.718750
9838,-11.718750
9839,-11.718750
9840,-11.718750
9841,-11.718750
9842,-11.718750
9843,-11.718750
9844,-11.718750
9845,-11.718750
9846,-11.718750
9847,-11.718750
9848,-11.718750
9849,-11.718750
9850,-11.718750
9851,-11.718750
9852,-11.718750
9853,-11.718750
9854,-11.718750
9855,-11.718750
9856,-11.718750
9857,-11.718750
9858,-11.718750
9859,-11.718750
9860,-11.718750
9861,-11.718750
9862,-11.718750
9863,-11.718750
9864,-11.718750
9865,-11.718750
9866,-11.718750
9867,-7.812500
9868,-7.812500
9869,-11.718750
9870,-11.718750
9871,-7.812500
9872,-7.812500
9873,-11.718750
9874,-7.812500
9875,-7.812500
9876,-7.812500
9877,-7.812500
9878,-7.812500
9879,-7.812500
9880,-7.812500
9881,-7.812500
9882,-7.812500
9883,-7.812500
9884,-7.812500
9885,-7.812500
9886,-7.812500
9887,-7.812500
9888,-7.812500
9889,-7.812500
9890,-7.812500
9891,-7.812500
9892,-7.812500
9893,-7.812500
9894,-7.812500
9895,-7.812500
9896,-7.812500
9897,-7.812500
9898,-7.812500
9899,-7.812500
9900,-7.812500
9901,-7.812500
9902,-7.812500
9903,-7.812500
9904,-7.812500
9905,-7.812500
9906,-7.812500
9907,-7.812500
9908,-7.812500
9909,-7.812500
9910,-7.812500
9911,-7.812500
9912,-7.812500
9913,-7.812500
9914,-7.812500
9915,-7.812500
9916,-3.906250
9917,-7.812500
9918,-7.812500
9919,-7.812500
9920,-7.812500
9921,-7.812500
9922,-7.812500
9923,-7.812500
9924,-3.906250
9925,-7.812500
9926,-7.812500
9927,-7.812500
9928,-7.812500
9929,-7.812500
9930,-7.812500
9931,-7.812500
9932,-3.906250
9933,-3.906250
9934,-3.906250
9935,-3.906250
9936,-3.906250
9937,-3.906250
9938,-3.906250
9939,-7.812500
9940,-3.906250
9941,-3.906250
9942,-3.906250
9943,-3.906250
9944,-3.906250
9945,-3.906250
9946,-3.906250
9947,-3.906250
9948,-3.906250
9949,-3.906250
9950,-3.906250
9951,-3.906250
9952,-3.906250
9953,-3.906250
9954,-3.906250
9955,-3.906250
9956,-3.906250
9957,-3.906250
9958,-3.906250
9959,-3.906250
9960,-3.906250
9961,-3.906250
9962,-3.906250
9963,-3.906250
9964,-3.906250
9965,-3.906250
9966,-3.906250
9967,-3.906250
9968,-3.906250
9969,-3.906250
9970,-3.906250
9971,-3.906250
9972,-3.906250
9973,-3.906250
9974,-3.906250
9975,-3.906250
9976,-3.906250
9977,-3.906250
9978,-3.906250
9979,-3.906250
9980,-3.906250
9981,-3.906250
9982,-3.906250
9983,-3.906250
9984,0.000000
9985,-3.906250
9986,-3.906250
9987,-3.906250
9988,-3.906250
9989,-3.906250
9990,-3.906250
9991,-3.906250
9992,-3.906250
9993,-3.906250
9994,0.000000
9995,-3.906250
9996,-3.906250
9997,-3.906250
9998,-3.906250
9999,-3.906250
10000,0.000000
