Channel              :,CH1
Frequency            :,1.010kHz
Period               :,0.990ms
PK-PK                :,148.4mV
Probe attenuation    :,1X
Voltage per ADC value:,0.244141mV
Time interval        :,1.00000us

index,CH1_Voltage(mV)
1,-42.968750
2,-42.968750
3,-42.968750
4,-42.968750
5,-42.968750
6,-42.968750
7,-42.968750
8,-39.062500
9,-39.062500
10,-39.062500
11,-39.062500
12,-39.062500
13,-39.062500
14,-39.062500
15,-39.062500
16,-39.062500
17,-35.156250
18,-35.156250
19,-35.156250
20,-35.156250
21,-35.156250
22,-35.156250
23,-35.156250
24,-35.156250
25,-31.250000
26,-35.156250
27,-31.250000
28,-31.250000
29,-31.250000
30,-31.250000
31,-31.250000
32,-31.250000
33,-27.343750
34,-27.343750
35,-27.343750
36,-27.343750
37,-27.343750
38,-27.343750
39,-27.343750
40,-27.343750
41,-27.343750
42,-23.437500
43,-23.437500
44,-23.437500
45,-23.437500
46,-23.437500
47,-23.437500
48,-23.437500
49,-19.531250
50,-19.531250
51,-23.437500
52,-19.531250
53,-19.531250
54,-19.531250
55,-19.531250
56,-19.531250
57,-19.531250
58,-19.531250
59,-15.625000
60,-15.625000
61,-15.625000
62,-15.625000
63,-15.625000
64,-15.625000
65,-15.625000
66,-15.625000
67,-11.718750
68,-11.718750
69,-11.718750
70,-11.718750
71,-11.718750
72,-11.718750
73,-11.718750
74,-11.718750
75,-7.812500
76,-11.718750
77,-7.812500
78,-7.812500
79,-7.812500
80,-7.812500
81,-7.812500
82,-7.812500
83,-7.812500
84,-7.812500
85,-3.906250
86,-3.906250
87,-3.906250
88,-3.906250
89,-3.906250
90,-3.906250
91,-3.906250
92,0.000000
93,0.000000
94,0.000000
95,0.000000
96,0.000000
97,0.000000
98,0.000000
99,0.000000
100,0.000000
101,0.000000
102,0.000000
103,3.906250
104,3.906250
105,3.906250
106,3.906250
107,3.906250
108,3.906250
109,3.906250
110,3.906250
111,7.812500
112,7.812500
113,7.812500
114,7.812500
115,7.812500
116,7.812500
117,7.812500
118,7.812500
119,7.812500
120,7.812500
121,11.718750
122,11.718750
123,11.718750
124,11.718750
125,11.718750
126,11.718750
127,11.718750
128,11.718750
129,15.625000
130,15.625000
131,15.625000
132,15.625000
133,15.625000
134,15.625000
135,15.625000
136,15.625000
137,15.625000
138,19.531250
139,19.531250
140,19.531250
141,19.531250
142,19.531250
143,19.531250
144,19.531250
145,19.531250
146,23.437500
147,23.437500
148,19.531250
149,23.437500
150,23.437500
151,23.437500
152,23.437500
153,23.437500
154,23.437500
155,23.437500
156,23.437500
157,27.343750
158,27.343750
159,27.343750
160,27.343750
161,27.343750
162,27.343750
163,27.343750
164,27.343750
165,27.343750
166,27.343750
167,27.343750
168,27.343750
169,31.250000
170,31.250000
171,31.250000
172,31.250000
173,31.250000
174,31.250000
175,31.250000
176,31.250000
177,31.250000
178,31.250000
179,31.250000
180,31.250000
181,35.156250
182,35.156250
183,35.156250
184,35.156250
185,35.156250
186,35.156250
187,35.156250
188,35.156250
189,35.156250
190,35.156250
191,39.062500
192,39.062500
193,39.062500
194,39.062500
195,39.062500
196,39.062500
197,39.062500
198,39.062500
199,39.062500
200,39.062500
201,39.062500
202,39.062500
203,42.968750
204,39.062500
205,42.968750
206,42.968750
207,42.968750
208,42.968750
209,42.968750
210,42.968750
211,42.968750
212,42.968750
213,42.968750
214,42.968750
215,42.968750
216,42.968750
217,42.968750
218,42.968750
219,42.968750
220,46.875000
221,46.875000
222,46.875000
223,46.875000
224,46.875000
225,46.875000
226,46.875000
227,46.875000
228,46.875000
229,46.875000
230,46.875000
231,46.875000
232,46.875000
233,46.875000
234,46.875000
235,46.875000
236,46.875000
237,50.781250
238,50.781250
239,50.781250
240,50.781250
241,50.781250
242,50.781250
243,50.781250
244,50.781250
245,50.781250
246,50.781250
247,50.781250
248,50.781250
249,50.781250
250,50.781250
251,50.781250
252,50.781250
253,50.781250
254,50.781250
255,50.781250
256,50.781250
257,54.687500
258,54.687500
259,54.687500
260,54.687500
261,54.687500
262,54.687500
263,54.687500
264,54.687500
265,54.687500
266,54.687500
267,54.687500
268,54.687500
269,54.687500
270,54.687500
271,54.687500
272,54.687500
273,54.687500
274,54.687500
275,54.687500
276,54.687500
277,54.687500
278,54.687500
279,54.687500
280,54.687500
281,54.687500
282,54.687500
283,54.687500
284,54.687500
285,54.687500
286,54.687500
287,54.687500
288,58.593750
289,58.593750
290,54.687500
291,54.687500
292,58.593750
293,58.593750
294,58.593750
295,58.593750
296,58.593750
297,58.593750
298,58.593750
299,58.593750
300,58.593750
301,58.593750
302,58.593750
303,58.593750
304,58.593750
305,58.593750
306,58.593750
307,58.593750
308,58.593750
309,58.593750
310,58.593750
311,58.593750
312,58.593750
313,58.593750
314,58.593750
315,58.593750
316,58.593750
317,58.593750
318,58.593750
319,58.593750
320,58.593750
321,58.593750
322,58.593750
323,58.593750
324,58.593750
325,58.593750
326,58.593750
327,58.593750
328,58.593750
329,58.593750
330,58.593750
331,58.593750
332,58.593750
333,58.593750
334,58.593750
335,58.593750
336,58.593750
337,58.593750
338,58.593750
339,58.593750
340,58.593750
341,58.593750
342,58.593750
343,58.593750
344,58.593750
345,58.593750
346,58.593750
347,58.593750
348,58.593750
349,58.593750
350,54.687500
351,54.687500
352,58.593750
353,54.687500
354,54.687500
355,54.687500
356,54.687500
357,58.593750
358,54.687500
359,54.687500
360,54.687500
361,54.687500
362,54.687500
363,54.687500
364,54.687500
365,54.687500
366,54.687500
367,54.687500
368,54.687500
369,54.687500
370,54.687500
371,54.687500
372,54.687500
373,54.687500
374,54.687500
375,54.687500
376,54.687500
377,54.687500
378,54.687500
379,54.687500
380,54.687500
381,54.687500
382,54.687500
383,54.687500
384,54.687500
385,50.781250
386,50.781250
387,50.781250
388,50.781250
389,50.781250
390,54.687500
391,50.781250
392,50.781250
393,50.781250
394,50.781250
395,50.781250
396,50.781250
397,50.781250
398,50.781250
399,50.781250
400,50.781250
401,50.781250
402,50.781250
403,50.781250
404,50.781250
405,50.781250
406,50.781250
407,50.781250
408,50.781250
409,46.875000
410,46.875000
411,46.875000
412,46.875000
413,46.875000
414,46.875000
415,46.875000
416,46.875000
417,46.875000
418,46.875000
419,46.875000
420,46.875000
421,46.875000
422,46.875000
423,46.875000
424,42.968750
425,42.968750
426,42.968750
427,42.968750
428,42.968750
429,42.968750
430,42.968750
431,42.968750
432,42.968750
433,42.968750
434,42.968750
435,42.968750
436,42.968750
437,42.968750
438,42.968750
439,39.062500
440,39.062500
441,39.062500
442,39.062500
443,39.062500
444,39.062500
445,39.062500
446,39.062500
447,39.062500
448,39.062500
449,39.062500
450,39.062500
451,39.062500
452,39.062500
453,39.062500
454,35.156250
455,35.156250
456,35.156250
457,35.156250
458,35.156250
459,35.156250
460,35.156250
461,35.156250
462,35.156250
463,35.156250
464,35.156250
465,35.156250
466,31.250000
467,31.250000
468,31.250000
469,31.250000
470,31.250000
471,31.250000
472,31.250000
473,31.250000
474,27.343750
475,31.250000
476,31.250000
477,27.343750
478,27.343750
479,27.343750
480,27.343750
481,27.343750
482,27.343750
483,27.343750
484,27.343750
485,27.343750
486,27.343750
487,23.437500
488,23.437500
489,23.437500
490,23.437500
491,23.437500
492,23.437500
493,23.437500
494,23.437500
495,23.437500
496,23.437500
497,23.437500
498,19.531250
499,19.531250
500,19.531250
501,19.531250
502,19.531250
503,19.531250
504,19.531250
505,19.531250
506,19.531250
507,19.531250
508,15.625000
509,15.625000
510,15.625000
511,15.625000
512,15.625000
513,15.625000
514,11.718750
515,15.625000
516,11.718750
517,15.625000
518,11.718750
519,11.718750
520,11.718750
521,11.718750
522,11.718750
523,11.718750
524,11.718750
525,7.812500
526,7.812500
527,7.812500
528,7.812500
529,7.812500
530,7.812500
531,7.812500
532,7.812500
533,7.812500
534,7.812500
535,3.906250
536,3.906250
537,3.906250
538,3.906250
539,3.906250
540,3.906250
541,3.906250
542,3.906250
543,3.906250
544,0.000000
545,0.000000
546,0.000000
547,0.000000
548,0.000000
549,0.000000
550,0.000000
551,0.000000
552,-3.906250
553,-3.906250
554,-3.906250
555,-3.906250
556,-3.906250
557,-3.906250
558,-3.906250
559,-3.906250
560,-7.812500
561,-7.812500
562,-7.812500
563,-7.812500
564,-7.812500
565,-7.812500
566,-7.812500
567,-7.812500
568,-7.812500
569,-11.718750
570,-11.718750
571,-11.718750
572,-11.718750
573,-11.718750
574,-11.718750
575,-11.718750
576,-11.718750
577,-11.718750
578,-15.625000
579,-15.625000
580,-15.625000
581,-15.625000
582,-15.625000
583,-15.625000
584,-15.625000
585,-19.531250
586,-19.531250
587,-19.531250
588,-19.531250
589,-19.531250
590,-19.531250
591,-19.531250
592,-19.531250
593,-19.531250
594,-19.531250
595,-23.437500
596,-23.437500
597,-23.437500
598,-23.437500
599,-23.437500
600,-23.437500
601,-23.437500
602,-23.437500
603,-27.343750
604,-27.343750
605,-27.343750
606,-27.343750
607,-27.343750
608,-27.343750
609,-27.343750
610,-27.343750
611,-31.250000
612,-31.250000
613,-31.250000
614,-31.250000
615,-31.250000
616,-31.250000
617,-31.250000
618,-31.250000
619,-31.250000
620,-35.156250
621,-35.156250
622,-35.156250
623,-35.156250
624,-35.156250
625,-35.156250
626,-35.156250
627,-39.062500
628,-39.062500
629,-39.062500
630,-39.062500
631,-39.062500
632,-39.062500
633,-39.062500
634,-39.062500
635,-39.062500
636,-42.968750
637,-42.968750
638,-42.968750
639,-42.968750
640,-42.968750
641,-42.968750
642,-42.968750
643,-42.968750
644,-42.968750
645,-42.968750
646,-46.875000
647,-46.875000
648,-46.875000
649,-46.875000
650,-46.875000
651,-46.875000
652,-46.875000
653,-46.875000
654,-46.875000
655,-46.875000
656,-50.781250
657,-50.781250
658,-50.781250
659,-50.781250
660,-50.781250
661,-50.781250
662,-50.781250
663,-50.781250
664,-54.687500
665,-54.687500
666,-54.687500
667,-54.687500
668,-54.687500
669,-54.687500
670,-54.687500
671,-54.687500
672,-54.687500
673,-54.687500
674,-58.593750
675,-58.593750
676,-58.593750
677,-58.593750
678,-58.593750
679,-58.593750
680,-58.593750
681,-58.593750
682,-58.593750
683,-58.593750
684,-62.500000
685,-62.500000
686,-62.500000
687,-62.500000
688,-62.500000
689,-62.500000
690,-62.500000
691,-62.500000
692,-62.500000
693,-62.500000
694,-62.500000
695,-62.500000
696,-66.406250
697,-62.500000
698,-66.406250
699,-66.406250
700,-66.406250
701,-66.406250
702,-66.406250
703,-66.406250
704,-66.406250
705,-66.406250
706,-70.312500
707,-70.312500
708,-70.312500
709,-70.312500
710,-70.312500
711,-70.312500
712,-70.312500
713,-70.312500
714,-70.312500
715,-70.312500
716,-70.312500
717,-70.312500
718,-70.312500
719,-70.312500
720,-74.218750
721,-74.218750
722,-74.218750
723,-74.218750
724,-74.218750
725,-74.218750
726,-74.218750
727,-74.218750
728,-74.218750
729,-74.218750
730,-74.218750
731,-74.218750
732,-74.218750
733,-78.125000
734,-78.125000
735,-78.125000
736,-78.125000
737,-78.125000
738,-78.125000
739,-78.125000
740,-78.125000
741,-78.125000
742,-78.125000
743,-78.125000
744,-78.125000
745,-78.125000
746,-78.125000
747,-78.125000
748,-78.125000
749,-82.031250
750,-78.125000
751,-82.031250
752,-82.031250
753,-82.031250
754,-82.031250
755,-82.031250
756,-82.031250
757,-82.031250
758,-82.031250
759,-82.031250
760,-82.031250
761,-82.031250
762,-82.031250
763,-82.031250
764,-82.031250
765,-82.031250
766,-82.031250
767,-82.031250
768,-82.031250
769,-82.031250
770,-85.937500
771,-82.031250
772,-85.937500
773,-82.031250
774,-85.937500
775,-85.937500
776,-85.937500
777,-85.937500
778,-85.937500
779,-85.937500
780,-85.937500
781,-85.937500
782,-85.937500
783,-85.937500
784,-85.937500
785,-85.937500
786,-85.937500
787,-85.937500
788,-85.937500
789,-85.937500
790,-85.937500
791,-85.937500
792,-85.937500
793,-85.937500
794,-85.937500
795,-85.937500
796,-85.937500
797,-85.937500
798,-85.937500
799,-85.937500
800,-89.843750
801,-85.937500
802,-85.937500
803,-85.937500
804,-85.937500
805,-85.937500
806,-85.937500
807,-85.937500
808,-85.937500
809,-89.843750
810,-85.937500
811,-85.937500
812,-85.937500
813,-85.937500
814,-85.937500
815,-85.937500
816,-85.937500
817,-85.937500
818,-85.937500
819,-89.843750
820,-85.937500
821,-85.937500
822,-85.937500
823,-85.937500
824,-85.937500
825,-85.937500
826,-85.937500
827,-85.937500
828,-85.937500
829,-85.937500
830,-85.937500
831,-85.937500
832,-85.937500
833,-85.937500
834,-85.937500
835,-85.937500
836,-85.937500
837,-85.937500
838,-85.937500
839,-85.937500
840,-85.937500
841,-85.937500
842,-85.937500
843,-85.937500
844,-85.937500
845,-85.937500
846,-85.937500
847,-85.937500
848,-85.937500
849,-85.937500
850,-85.937500
851,-85.937500
852,-85.937500
853,-85.937500
854,-85.937500
855,-85.937500
856,-85.937500
857,-85.937500
858,-85.937500
859,-85.937500
860,-85.937500
861,-85.937500
862,-82.031250
863,-82.031250
864,-85.937500
865,-82.031250
866,-82.031250
867,-82.031250
868,-82.031250
869,-82.031250
870,-82.031250
871,-82.031250
872,-82.031250
873,-82.031250
874,-82.031250
875,-82.031250
876,-82.031250
877,-82.031250
878,-82.031250
879,-82.031250
880,-82.031250
881,-82.031250
882,-82.031250
883,-82.031250
884,-82.031250
885,-82.031250
886,-78.125000
887,-78.125000
888,-78.125000
889,-78.125000
890,-78.125000
891,-78.125000
892,-78.125000
893,-78.125000
894,-78.125000
895,-78.125000
896,-78.125000
897,-78.125000
898,-78.125000
899,-78.125000
900,-78.125000
901,-74.218750
902,-74.218750
903,-74.218750
904,-74.218750
905,-74.218750
906,-74.218750
907,-74.218750
908,-74.218750
909,-74.218750
910,-74.218750
911,-74.218750
912,-74.218750
913,-74.218750
914,-74.218750
915,-74.218750
916,-70.312500
917,-70.312500
918,-70.312500
919,-70.312500
920,-70.312500
921,-70.312500
922,-70.312500
923,-70.312500
924,-70.312500
925,-70.312500
926,-70.312500
927,-66.406250
928,-66.406250
929,-66.406250
930,-66.406250
931,-66.406250
932,-66.406250
933,-66.406250
934,-66.406250
935,-66.406250
936,-66.406250
937,-62.500000
938,-66.406250
939,-62.500000
940,-62.500000
941,-62.500000
942,-62.500000
943,-62.500000
944,-62.500000
945,-62.500000
946,-62.500000
947,-62.500000
948,-62.500000
949,-62.500000
950,-58.593750
951,-58.593750
952,-58.593750
953,-58.593750
954,-58.593750
955,-58.593750
956,-58.593750
957,-58.593750
958,-58.593750
959,-58.593750
960,-58.593750
961,-54.687500
962,-54.687500
963,-54.687500
964,-54.687500
965,-54.687500
966,-54.687500
967,-54.687500
968,-54.687500
969,-50.781250
970,-54.687500
971,-50.781250
972,-50.781250
973,-50.781250
974,-50.781250
975,-50.781250
976,-50.781250
977,-50.781250
978,-50.781250
979,-50.781250
980,-46.875000
981,-46.875000
982,-46.875000
983,-46.875000
984,-46.875000
985,-46.875000
986,-46.875000
987,-46.875000
988,-42.968750
989,-42.968750
990,-42.968750
991,-42.968750
992,-42.968750
993,-42.968750
994,-42.968750
995,-42.968750
996,-42.968750
997,-42.968750
998,-39.062500
999,-39.062500
1000,-39.062500
1001,-39.062500
1002,-39.062500
1003,-39.062500
1004,-39.062500
1005,-39.062500
1006,-39.062500
1007,-35.156250
1008,-35.156250
1009,-35.156250
1010,-35.156250
1011,-35.156250
1012,-35.156250
1013,-35.156250
1014,-35.156250
1015,-31.250000
1016,-31.250000
1017,-31.250000
1018,-31.250000
1019,-31.250000
1020,-31.250000
1021,-31.250000
1022,-31.250000
1023,-31.250000
1024,-27.343750
1025,-27.343750
1026,-27.343750
1027,-27.343750
1028,-27.343750
1029,-27.343750
1030,-27.343750
1031,-27.343750
1032,-23.437500
1033,-23.437500
1034,-23.437500
1035,-23.437500
1036,-23.437500
1037,-23.437500
1038,-23.437500
1039,-23.437500
1040,-19.531250
1041,-19.531250
1042,-19.531250
1043,-19.531250
1044,-19.531250
1045,-19.531250
1046,-19.531250
1047,-19.531250
1048,-15.625000
1049,-15.625000
1050,-15.625000
1051,-15.625000
1052,-15.625000
1053,-15.625000
1054,-15.625000
1055,-15.625000
1056,-15.625000
1057,-11.718750
1058,-11.718750
1059,-11.718750
1060,-11.718750
1061,-11.718750
1062,-11.718750
1063,-7.812500
1064,-7.812500
1065,-7.812500
1066,-7.812500
1067,-7.812500
1068,-7.812500
1069,-7.812500
1070,-7.812500
1071,-7.812500
1072,-7.812500
1073,-3.906250
1074,-3.906250
1075,-3.906250
1076,-3.906250
1077,-3.906250
1078,-3.906250
1079,-3.906250
1080,-3.906250
1081,-3.906250
1082,-3.906250
1083,0.000000
1084,0.000000
1085,0.000000
1086,0.000000
1087,0.000000
1088,0.000000
1089,0.000000
1090,3.906250
1091,3.906250
1092,3.906250
1093,3.906250
1094,3.906250
1095,3.906250
1096,3.906250
1097,3.906250
1098,3.906250
1099,3.906250
1100,3.906250
1101,7.812500
1102,7.812500
1103,7.812500
1104,7.812500
1105,7.812500
1106,7.812500
1107,7.812500
1108,11.718750
1109,7.812500
1110,11.718750
1111,11.718750
1112,11.718750
1113,11.718750
1114,11.718750
1115,11.718750
1116,11.718750
1117,15.625000
1118,15.625000
1119,15.625000
1120,15.625000
1121,15.625000
1122,15.625000
1123,15.625000
1124,15.625000
1125,15.625000
1126,15.625000
1127,15.625000
1128,19.531250
1129,19.531250
1130,19.531250
1131,19.531250
1132,19.531250
1133,19.531250
1134,19.531250
1135,19.531250
1136,19.531250
1137,19.531250
1138,23.437500
1139,23.437500
1140,23.437500
1141,23.437500
1142,23.437500
1143,23.437500
1144,23.437500
1145,23.437500
1146,23.437500
1147,23.437500
1148,27.343750
1149,27.343750
1150,27.343750
1151,27.343750
1152,27.343750
1153,27.343750
1154,27.343750
1155,27.343750
1156,27.343750
1157,27.343750
1158,27.343750
1159,31.250000
1160,31.250000
1161,31.250000
1162,31.250000
1163,31.250000
1164,31.250000
1165,31.250000
1166,31.250000
1167,31.250000
1168,31.250000
1169,35.156250
1170,35.156250
1171,35.156250
1172,35.156250
1173,35.156250
1174,35.156250
1175,35.156250
1176,35.156250
1177,35.156250
1178,35.156250
1179,35.156250
1180,35.156250
1181,39.062500
1182,39.062500
1183,39.062500
1184,39.062500
1185,39.062500
1186,39.062500
1187,39.062500
1188,39.062500
1189,39.062500
1190,39.062500
1191,39.062500
1192,39.062500
1193,39.062500
1194,42.968750
1195,42.968750
1196,42.968750
1197,42.968750
1198,42.968750
1199,42.968750
1200,42.968750
1201,42.968750
1202,42.968750
1203,42.968750
1204,42.968750
1205,42.968750
1206,46.875000
1207,46.875000
1208,46.875000
1209,46.875000
1210,46.875000
1211,46.875000
1212,46.875000
1213,46.875000
1214,46.875000
1215,46.875000
1216,46.875000
1217,46.875000
1218,46.875000
1219,46.875000
1220,46.875000
1221,46.875000
1222,46.875000
1223,46.875000
1224,46.875000
1225,46.875000
1226,46.875000
1227,50.781250
1228,50.781250
1229,50.781250
1230,50.781250
1231,50.781250
1232,50.781250
1233,50.781250
1234,50.781250
1235,50.781250
1236,50.781250
1237,50.781250
1238,50.781250
1239,50.781250
1240,50.781250
1241,50.781250
1242,50.781250
1243,50.781250
1244,50.781250
1245,50.781250
1246,50.781250
1247,50.781250
1248,50.781250
1249,54.687500
1250,54.687500
1251,54.687500
1252,54.687500
1253,54.687500
1254,54.687500
1255,54.687500
1256,54.687500
1257,54.687500
1258,54.687500
1259,54.687500
1260,54.687500
1261,54.687500
1262,54.687500
1263,54.687500
1264,54.687500
1265,54.687500
1266,54.687500
1267,54.687500
1268,54.687500
1269,54.687500
1270,54.687500
1271,54.687500
1272,54.687500
1273,54.687500
1274,54.687500
1275,54.687500
1276,54.687500
1277,54.687500
1278,54.687500
1279,54.687500
1280,58.593750
1281,54.687500
1282,58.593750
1283,54.687500
1284,54.687500
1285,54.687500
1286,58.593750
1287,58.593750
1288,58.593750
1289,58.593750
1290,58.593750
1291,58.593750
1292,58.593750
1293,58.593750
1294,58.593750
1295,58.593750
1296,58.593750
1297,58.593750
1298,58.593750
1299,58.593750
1300,58.593750
1301,58.593750
1302,58.593750
1303,58.593750
1304,58.593750
1305,58.593750
1306,58.593750
1307,58.593750
1308,58.593750
1309,58.593750
1310,58.593750
1311,58.593750
1312,58.593750
1313,58.593750
1314,58.593750
1315,58.593750
1316,58.593750
1317,58.593750
1318,58.593750
1319,58.593750
1320,58.593750
1321,58.593750
1322,58.593750
1323,58.593750
1324,58.593750
1325,58.593750
1326,58.593750
1327,58.593750
1328,58.593750
1329,58.593750
1330,58.593750
1331,58.593750
1332,58.593750
1333,58.593750
1334,58.593750
1335,58.593750
1336,54.687500
1337,54.687500
1338,54.687500
1339,58.593750
1340,54.687500
1341,58.593750
1342,58.593750
1343,58.593750
1344,54.687500
1345,54.687500
1346,54.687500
1347,54.687500
1348,54.687500
1349,54.687500
1350,54.687500
1351,54.687500
1352,54.687500
1353,54.687500
1354,54.687500
1355,54.687500
1356,54.687500
1357,54.687500
1358,54.687500
1359,54.687500
1360,54.687500
1361,54.687500
1362,54.687500
1363,54.687500
1364,54.687500
1365,54.687500
1366,54.687500
1367,54.687500
1368,54.687500
1369,54.687500
1370,54.687500
1371,54.687500
1372,50.781250
1373,54.687500
1374,50.781250
1375,50.781250
1376,50.781250
1377,50.781250
1378,50.781250
1379,50.781250
1380,50.781250
1381,50.781250
1382,50.781250
1383,50.781250
1384,50.781250
1385,50.781250
1386,50.781250
1387,50.781250
1388,50.781250
1389,50.781250
1390,50.781250
1391,50.781250
1392,50.781250
1393,50.781250
1394,50.781250
1395,50.781250
1396,50.781250
1397,46.875000
1398,46.875000
1399,46.875000
1400,46.875000
1401,46.875000
1402,46.875000
1403,46.875000
1404,46.875000
1405,46.875000
1406,46.875000
1407,46.875000
1408,46.875000
1409,46.875000
1410,46.875000
1411,46.875000
1412,46.875000
1413,46.875000
1414,42.968750
1415,42.968750
1416,42.968750
1417,42.968750
1418,42.968750
1419,42.968750
1420,42.968750
1421,42.968750
1422,42.968750
1423,42.968750
1424,42.968750
1425,42.968750
1426,42.968750
1427,42.968750
1428,42.968750
1429,39.062500
1430,39.062500
1431,39.062500
1432,39.062500
1433,39.062500
1434,39.062500
1435,39.062500
1436,39.062500
1437,39.062500
1438,39.062500
1439,39.062500
1440,39.062500
1441,39.062500
1442,39.062500
1443,39.062500
1444,35.156250
1445,35.156250
1446,35.156250
1447,35.156250
1448,35.156250
1449,35.156250
1450,35.156250
1451,35.156250
1452,35.156250
1453,35.156250
1454,35.156250
1455,31.250000
1456,31.250000
1457,31.250000
1458,31.250000
1459,31.250000
1460,31.250000
1461,31.250000
1462,31.250000
1463,31.250000
1464,27.343750
1465,27.343750
1466,27.343750
1467,27.343750
1468,27.343750
1469,27.343750
1470,27.343750
1471,27.343750
1472,27.343750
1473,27.343750
1474,27.343750
1475,27.343750
1476,23.437500
1477,23.437500
1478,23.437500
1479,23.437500
1480,23.437500
1481,23.437500
1482,23.437500
1483,23.437500
1484,23.437500
1485,23.437500
1486,19.531250
1487,19.531250
1488,19.531250
1489,19.531250
1490,19.531250
1491,19.531250
1492,19.531250
1493,19.531250
1494,15.625000
1495,19.531250
1496,15.625000
1497,15.625000
1498,15.625000
1499,15.625000
1500,15.625000
1501,15.625000
1502,15.625000
1503,15.625000
1504,15.625000
1505,11.718750
1506,11.718750
1507,11.718750
1508,11.718750
1509,11.718750
1510,11.718750
1511,11.718750
1512,11.718750
1513,11.718750
1514,7.812500
1515,7.812500
1516,7.812500
1517,11.718750
1518,7.812500
1519,7.812500
1520,7.812500
1521,7.812500
1522,3.906250
1523,7.812500
1524,3.906250
1525,3.906250
1526,3.906250
1527,3.906250
1528,3.906250
1529,3.906250
1530,3.906250
1531,3.906250
1532,3.906250
1533,0.000000
1534,0.000000
1535,0.000000
1536,0.000000
1537,0.000000
1538,0.000000
1539,0.000000
1540,0.000000
1541,-3.906250
1542,-3.906250
1543,-3.906250
1544,-3.906250
1545,-3.906250
1546,-3.906250
1547,-3.906250
1548,-3.906250
1549,-3.906250
1550,-7.812500
1551,-7.812500
1552,-7.812500
1553,-7.812500
1554,-7.812500
1555,-7.812500
1556,-7.812500
1557,-7.812500
1558,-7.812500
1559,-11.718750
1560,-11.718750
1561,-11.718750
1562,-11.718750
1563,-11.718750
1564,-11.718750
1565,-11.718750
1566,-11.718750
1567,-11.718750
1568,-15.625000
1569,-15.625000
1570,-15.625000
1571,-15.625000
1572,-15.625000
1573,-15.625000
1574,-15.625000
1575,-19.531250
1576,-19.531250
1577,-19.531250
1578,-19.531250
1579,-19.531250
1580,-19.531250
1581,-19.531250
1582,-19.531250
1583,-19.531250
1584,-23.437500
1585,-19.531250
1586,-23.437500
1587,-23.437500
1588,-23.437500
1589,-23.437500
1590,-23.437500
1591,-23.437500
1592,-27.343750
1593,-27.343750
1594,-27.343750
1595,-27.343750
1596,-27.343750
1597,-27.343750
1598,-27.343750
1599,-27.343750
1600,-27.343750
1601,-31.250000
1602,-31.250000
1603,-31.250000
1604,-31.250000
1605,-31.250000
1606,-31.250000
1607,-31.250000
1608,-35.156250
1609,-35.156250
1610,-35.156250
1611,-35.156250
1612,-35.156250
1613,-35.156250
1614,-35.156250
1615,-35.156250
1616,-35.156250
1617,-35.156250
1618,-39.062500
1619,-39.062500
1620,-39.062500
1621,-39.062500
1622,-39.062500
1623,-39.062500
1624,-39.062500
1625,-39.062500
1626,-42.968750
1627,-39.062500
1628,-42.968750
1629,-42.968750
1630,-42.968750
1631,-42.968750
1632,-42.968750
1633,-42.968750
1634,-46.875000
1635,-42.968750
1636,-46.875000
1637,-46.875000
1638,-46.875000
1639,-46.875000
1640,-46.875000
1641,-46.875000
1642,-46.875000
1643,-46.875000
1644,-50.781250
1645,-46.875000
1646,-50.781250
1647,-50.781250
1648,-50.781250
1649,-50.781250
1650,-50.781250
1651,-50.781250
1652,-50.781250
1653,-50.781250
1654,-50.781250
1655,-50.781250
1656,-54.687500
1657,-54.687500
1658,-54.687500
1659,-54.687500
1660,-54.687500
1661,-54.687500
1662,-54.687500
1663,-54.687500
1664,-54.687500
1665,-58.593750
1666,-58.593750
1667,-58.593750
1668,-58.593750
1669,-58.593750
1670,-58.593750
1671,-58.593750
1672,-58.593750
1673,-58.593750
1674,-62.500000
1675,-62.500000
1676,-62.500000
1677,-62.500000
1678,-62.500000
1679,-62.500000
1680,-62.500000
1681,-62.500000
1682,-62.500000
1683,-62.500000
1684,-66.406250
1685,-66.406250
1686,-66.406250
1687,-66.406250
1688,-66.406250
1689,-66.406250
1690,-66.406250
1691,-66.406250
1692,-66.406250
1693,-66.406250
1694,-66.406250
1695,-66.406250
1696,-66.406250
1697,-66.406250
1698,-70.312500
1699,-70.312500
1700,-70.312500
1701,-70.312500
1702,-70.312500
1703,-70.312500
1704,-70.312500
1705,-70.312500
1706,-70.312500
1707,-70.312500
1708,-74.218750
1709,-70.312500
1710,-74.218750
1711,-70.312500
1712,-74.218750
1713,-74.218750
1714,-74.218750
1715,-74.218750
1716,-74.218750
1717,-74.218750
1718,-74.218750
1719,-74.218750
1720,-74.218750
1721,-74.218750
1722,-74.218750
1723,-78.125000
1724,-78.125000
1725,-74.218750
1726,-78.125000
1727,-78.125000
1728,-78.125000
1729,-78.125000
1730,-78.125000
1731,-78.125000
1732,-78.125000
1733,-78.125000
1734,-78.125000
1735,-78.125000
1736,-78.125000
1737,-78.125000
1738,-78.125000
1739,-78.125000
1740,-82.031250
1741,-82.031250
1742,-82.031250
1743,-78.125000
1744,-82.031250
1745,-82.031250
1746,-82.031250
1747,-82.031250
1748,-82.031250
1749,-82.031250
1750,-82.031250
1751,-82.031250
1752,-82.031250
1753,-82.031250
1754,-82.031250
1755,-82.031250
1756,-82.031250
1757,-85.937500
1758,-82.031250
1759,-82.031250
1760,-82.031250
1761,-82.031250
1762,-82.031250
1763,-82.031250
1764,-85.937500
1765,-85.937500
1766,-85.937500
1767,-85.937500
1768,-85.937500
1769,-85.937500
1770,-85.937500
1771,-85.937500
1772,-85.937500
1773,-85.937500
1774,-85.937500
1775,-85.937500
1776,-85.937500
1777,-85.937500
1778,-85.937500
1779,-85.937500
1780,-85.937500
1781,-85.937500
1782,-85.937500
1783,-85.937500
1784,-85.937500
1785,-85.937500
1786,-85.937500
1787,-85.937500
1788,-85.937500
1789,-85.937500
1790,-85.937500
1791,-85.937500
1792,-85.937500
1793,-85.937500
1794,-85.937500
1795,-85.937500
1796,-85.937500
1797,-85.937500
1798,-85.937500
1799,-85.937500
1800,-85.937500
1801,-85.937500
1802,-85.937500
1803,-89.843750
1804,-89.843750
1805,-85.937500
1806,-89.843750
1807,-85.937500
1808,-85.937500
1809,-85.937500
1810,-85.937500
1811,-85.937500
1812,-85.937500
1813,-85.937500
1814,-85.937500
1815,-85.937500
1816,-85.937500
1817,-85.937500
1818,-85.937500
1819,-85.937500
1820,-85.937500
1821,-85.937500
1822,-85.937500
1823,-85.937500
1824,-85.937500
1825,-85.937500
1826,-85.937500
1827,-85.937500
1828,-85.937500
1829,-85.937500
1830,-85.937500
1831,-85.937500
1832,-85.937500
1833,-85.937500
1834,-85.937500
1835,-85.937500
1836,-85.937500
1837,-85.937500
1838,-85.937500
1839,-85.937500
1840,-85.937500
1841,-85.937500
1842,-85.937500
1843,-85.937500
1844,-85.937500
1845,-85.937500
1846,-85.937500
1847,-85.937500
1848,-85.937500
1849,-85.937500
1850,-85.937500
1851,-82.031250
1852,-85.937500
1853,-85.937500
1854,-85.937500
1855,-82.031250
1856,-82.031250
1857,-82.031250
1858,-82.031250
1859,-82.031250
1860,-82.031250
1861,-82.031250
1862,-82.031250
1863,-82.031250
1864,-82.031250
1865,-82.031250
1866,-82.031250
1867,-82.031250
1868,-82.031250
1869,-82.031250
1870,-82.031250
1871,-82.031250
1872,-78.125000
1873,-78.125000
1874,-82.031250
1875,-78.125000
1876,-78.125000
1877,-78.125000
1878,-78.125000
1879,-78.125000
1880,-78.125000
1881,-78.125000
1882,-78.125000
1883,-78.125000
1884,-78.125000
1885,-78.125000
1886,-78.125000
1887,-78.125000
1888,-78.125000
1889,-74.218750
1890,-78.125000
1891,-74.218750
1892,-74.218750
1893,-74.218750
1894,-78.125000
1895,-74.218750
1896,-74.218750
1897,-74.218750
1898,-74.218750
1899,-74.218750
1900,-74.218750
1901,-74.218750
1902,-74.218750
1903,-74.218750
1904,-74.218750
1905,-74.218750
1906,-70.312500
1907,-70.312500
1908,-70.312500
1909,-70.312500
1910,-70.312500
1911,-70.312500
1912,-70.312500
1913,-70.312500
1914,-70.312500
1915,-70.312500
1916,-70.312500
1917,-66.406250
1918,-70.312500
1919,-66.406250
1920,-70.312500
1921,-66.406250
1922,-66.406250
1923,-66.406250
1924,-66.406250
1925,-66.406250
1926,-66.406250
1927,-66.406250
1928,-66.406250
1929,-66.406250
1930,-66.406250
1931,-62.500000
1932,-62.500000
1933,-62.500000
1934,-62.500000
1935,-62.500000
1936,-62.500000
1937,-62.500000
1938,-62.500000
1939,-62.500000
1940,-62.500000
1941,-58.593750
1942,-62.500000
1943,-58.593750
1944,-58.593750
1945,-58.593750
1946,-58.593750
1947,-58.593750
1948,-58.593750
1949,-54.687500
1950,-58.593750
1951,-58.593750
1952,-54.687500
1953,-54.687500
1954,-54.687500
1955,-54.687500
1956,-54.687500
1957,-54.687500
1958,-54.687500
1959,-54.687500
1960,-54.687500
1961,-50.781250
1962,-50.781250
1963,-50.781250
1964,-50.781250
1965,-50.781250
1966,-50.781250
1967,-50.781250
1968,-50.781250
1969,-50.781250
1970,-46.875000
1971,-46.875000
1972,-46.875000
1973,-46.875000
1974,-46.875000
1975,-46.875000
1976,-46.875000
1977,-46.875000
1978,-46.875000
1979,-42.968750
1980,-42.968750
1981,-42.968750
1982,-42.968750
1983,-42.968750
1984,-42.968750
1985,-42.968750
1986,-42.968750
1987,-39.062500
1988,-39.062500
1989,-39.062500
1990,-39.062500
1991,-39.062500
1992,-39.062500
1993,-39.062500
1994,-39.062500
1995,-39.062500
1996,-39.062500
1997,-35.156250
1998,-35.156250
1999,-35.156250
2000,-35.156250
2001,-35.156250
2002,-35.156250
2003,-35.156250
2004,-35.156250
2005,-35.156250
2006,-35.156250
2007,-31.250000
2008,-31.250000
2009,-31.250000
2010,-31.250000
2011,-31.250000
2012,-31.250000
2013,-31.250000
2014,-31.250000
2015,-27.343750
2016,-27.343750
2017,-27.343750
2018,-27.343750
2019,-27.343750
2020,-27.343750
2021,-27.343750
2022,-23.437500
2023,-23.437500
2024,-23.437500
2025,-23.437500
2026,-23.437500
2027,-23.437500
2028,-23.437500
2029,-23.437500
2030,-23.437500
2031,-19.531250
2032,-19.531250
2033,-19.531250
2034,-19.531250
2035,-19.531250
2036,-19.531250
2037,-19.531250
2038,-19.531250
2039,-15.625000
2040,-15.625000
2041,-15.625000
2042,-15.625000
2043,-15.625000
2044,-15.625000
2045,-15.625000
2046,-15.625000
2047,-11.718750
2048,-11.718750
2049,-11.718750
2050,-11.718750
2051,-11.718750
2052,-11.718750
2053,-11.718750
2054,-11.718750
2055,-11.718750
2056,-7.812500
2057,-7.812500
2058,-7.812500
2059,-7.812500
2060,-7.812500
2061,-7.812500
2062,-7.812500
2063,-7.812500
2064,-7.812500
2065,-7.812500
2066,-3.906250
2067,-3.906250
2068,-3.906250
2069,-3.906250
2070,-3.906250
2071,-3.906250
2072,-3.906250
2073,-3.906250
2074,0.000000
2075,0.000000
2076,0.000000
2077,0.000000
2078,0.000000
2079,0.000000
2080,0.000000
2081,3.906250
2082,3.906250
2083,3.906250
2084,3.906250
2085,3.906250
2086,3.906250
2087,3.906250
2088,3.906250
2089,3.906250
2090,3.906250
2091,7.812500
2092,7.812500
2093,7.812500
2094,7.812500
2095,7.812500
2096,7.812500
2097,7.812500
2098,11.718750
2099,11.718750
2100,11.718750
2101,11.718750
2102,11.718750
2103,11.718750
2104,11.718750
2105,11.718750
2106,11.718750
2107,15.625000
2108,15.625000
2109,15.625000
2110,15.625000
2111,15.625000
2112,15.625000
2113,15.625000
2114,15.625000
2115,15.625000
2116,19.531250
2117,15.625000
2118,19.531250
2119,19.531250
2120,19.531250
2121,19.531250
2122,19.531250
2123,19.531250
2124,19.531250
2125,19.531250
2126,19.531250
2127,19.531250
2128,19.531250
2129,23.437500
2130,23.437500
2131,23.437500
2132,23.437500
2133,23.437500
2134,23.437500
2135,23.437500
2136,23.437500
2137,27.343750
2138,27.343750
2139,27.343750
2140,27.343750
2141,27.343750
2142,27.343750
2143,27.343750
2144,27.343750
2145,27.343750
2146,27.343750
2147,27.343750
2148,31.250000
2149,31.250000
2150,31.250000
2151,31.250000
2152,31.250000
2153,31.250000
2154,31.250000
2155,31.250000
2156,31.250000
2157,31.250000
2158,31.250000
2159,31.250000
2160,35.156250
2161,35.156250
2162,35.156250
2163,35.156250
2164,35.156250
2165,35.156250
2166,35.156250
2167,35.156250
2168,35.156250
2169,35.156250
2170,39.062500
2171,35.156250
2172,39.062500
2173,35.156250
2174,39.062500
2175,39.062500
2176,39.062500
2177,39.062500
2178,39.062500
2179,39.062500
2180,39.062500
2181,39.062500
2182,39.062500
2183,39.062500
2184,39.062500
2185,42.968750
2186,42.968750
2187,39.062500
2188,42.968750
2189,42.968750
2190,42.968750
2191,42.968750
2192,42.968750
2193,42.968750
2194,42.968750
2195,42.968750
2196,42.968750
2197,42.968750
2198,42.968750
2199,42.968750
2200,46.875000
2201,46.875000
2202,46.875000
2203,46.875000
2204,46.875000
2205,46.875000
2206,46.875000
2207,46.875000
2208,46.875000
2209,46.875000
2210,46.875000
2211,46.875000
2212,46.875000
2213,46.875000
2214,46.875000
2215,50.781250
2216,50.781250
2217,50.781250
2218,50.781250
2219,50.781250
2220,50.781250
2221,50.781250
2222,50.781250
2223,50.781250
2224,50.781250
2225,50.781250
2226,50.781250
2227,50.781250
2228,50.781250
2229,50.781250
2230,50.781250
2231,50.781250
2232,50.781250
2233,54.687500
2234,50.781250
2235,54.687500
2236,50.781250
2237,54.687500
2238,50.781250
2239,54.687500
2240,54.687500
2241,54.687500
2242,54.687500
2243,54.687500
2244,54.687500
2245,54.687500
2246,54.687500
2247,54.687500
2248,54.687500
2249,54.687500
2250,54.687500
2251,54.687500
2252,54.687500
2253,54.687500
2254,54.687500
2255,54.687500
2256,54.687500
2257,54.687500
2258,54.687500
2259,54.687500
2260,54.687500
2261,54.687500
2262,54.687500
2263,54.687500
2264,54.687500
2265,54.687500
2266,58.593750
2267,54.687500
2268,58.593750
2269,58.593750
2270,58.593750
2271,58.593750
2272,58.593750
2273,58.593750
2274,54.687500
2275,58.593750
2276,58.593750
2277,58.593750
2278,58.593750
2279,58.593750
2280,58.593750
2281,58.593750
2282,58.593750
2283,58.593750
2284,58.593750
2285,58.593750
2286,58.593750
2287,58.593750
2288,58.593750
2289,58.593750
2290,58.593750
2291,58.593750
2292,58.593750
2293,58.593750
2294,58.593750
2295,58.593750
2296,58.593750
2297,58.593750
2298,58.593750
2299,58.593750
2300,58.593750
2301,58.593750
2302,58.593750
2303,58.593750
2304,58.593750
2305,58.593750
2306,58.593750
2307,58.593750
2308,58.593750
2309,58.593750
2310,58.593750
2311,58.593750
2312,58.593750
2313,58.593750
2314,58.593750
2315,58.593750
2316,58.593750
2317,58.593750
2318,58.593750
2319,58.593750
2320,58.593750
2321,58.593750
2322,58.593750
2323,58.593750
2324,58.593750
2325,58.593750
2326,58.593750
2327,58.593750
2328,58.593750
2329,58.593750
2330,54.687500
2331,54.687500
2332,54.687500
2333,54.687500
2334,54.687500
2335,54.687500
2336,54.687500
2337,58.593750
2338,54.687500
2339,54.687500
2340,58.593750
2341,54.687500
2342,54.687500
2343,54.687500
2344,54.687500
2345,54.687500
2346,54.687500
2347,54.687500
2348,54.687500
2349,54.687500
2350,54.687500
2351,54.687500
2352,54.687500
2353,54.687500
2354,54.687500
2355,54.687500
2356,54.687500
2357,54.687500
2358,54.687500
2359,54.687500
2360,54.687500
2361,54.687500
2362,54.687500
2363,54.687500
2364,54.687500
2365,50.781250
2366,50.781250
2367,50.781250
2368,54.687500
2369,50.781250
2370,54.687500
2371,50.781250
2372,50.781250
2373,50.781250
2374,50.781250
2375,50.781250
2376,50.781250
2377,50.781250
2378,50.781250
2379,50.781250
2380,50.781250
2381,50.781250
2382,50.781250
2383,50.781250
2384,50.781250
2385,50.781250
2386,46.875000
2387,46.875000
2388,46.875000
2389,46.875000
2390,46.875000
2391,46.875000
2392,46.875000
2393,46.875000
2394,46.875000
2395,46.875000
2396,46.875000
2397,46.875000
2398,46.875000
2399,46.875000
2400,46.875000
2401,46.875000
2402,42.968750
2403,42.968750
2404,42.968750
2405,42.968750
2406,42.968750
2407,42.968750
2408,42.968750
2409,42.968750
2410,42.968750
2411,42.968750
2412,42.968750
2413,42.968750
2414,42.968750
2415,42.968750
2416,42.968750
2417,42.968750
2418,42.968750
2419,39.062500
2420,39.062500
2421,39.062500
2422,39.062500
2423,39.062500
2424,39.062500
2425,39.062500
2426,39.062500
2427,39.062500
2428,39.062500
2429,39.062500
2430,35.156250
2431,35.156250
2432,35.156250
2433,35.156250
2434,35.156250
2435,35.156250
2436,35.156250
2437,35.156250
2438,35.156250
2439,35.156250
2440,35.156250
2441,35.156250
2442,31.250000
2443,31.250000
2444,31.250000
2445,31.250000
2446,31.250000
2447,31.250000
2448,31.250000
2449,31.250000
2450,31.250000
2451,31.250000
2452,31.250000
2453,31.250000
2454,31.250000
2455,27.343750
2456,27.343750
2457,27.343750
2458,27.343750
2459,27.343750
2460,27.343750
2461,27.343750
2462,27.343750
2463,27.343750
2464,27.343750
2465,23.437500
2466,23.437500
2467,23.437500
2468,23.437500
2469,23.437500
2470,23.437500
2471,23.437500
2472,23.437500
2473,23.437500
2474,23.437500
2475,23.437500
2476,19.531250
2477,19.531250
2478,19.531250
2479,19.531250
2480,19.531250
2481,19.531250
2482,19.531250
2483,19.531250
2484,19.531250
2485,19.531250
2486,15.625000
2487,15.625000
2488,15.625000
2489,15.625000
2490,15.625000
2491,15.625000
2492,15.625000
2493,15.625000
2494,15.625000
2495,15.625000
2496,11.718750
2497,11.718750
2498,11.718750
2499,11.718750
2500,11.718750
2501,11.718750
2502,11.718750
2503,11.718750
2504,11.718750
2505,7.812500
2506,7.812500
2507,7.812500
2508,7.812500
2509,7.812500
2510,7.812500
2511,7.812500
2512,7.812500
2513,7.812500
2514,3.906250
2515,3.906250
2516,3.906250
2517,3.906250
2518,3.906250
2519,3.906250
2520,3.906250
2521,3.906250
2522,3.906250
2523,0.000000
2524,0.000000
2525,0.000000
2526,0.000000
2527,0.000000
2528,0.000000
2529,0.000000
2530,0.000000
2531,0.000000
2532,-3.906250
2533,-3.906250
2534,-3.906250
2535,-3.906250
2536,-3.906250
2537,-3.906250
2538,-3.906250
2539,-7.812500
2540,-7.812500
2541,-7.812500
2542,-7.812500
2543,-7.812500
2544,-7.812500
2545,-7.812500
2546,-7.812500
2547,-7.812500
2548,-11.718750
2549,-11.718750
2550,-11.718750
2551,-11.718750
2552,-11.718750
2553,-11.718750
2554,-11.718750
2555,-11.718750
2556,-11.718750
2557,-15.625000
2558,-15.625000
2559,-15.625000
2560,-15.625000
2561,-15.625000
2562,-15.625000
2563,-15.625000
2564,-19.531250
2565,-19.531250
2566,-19.531250
2567,-19.531250
2568,-19.531250
2569,-19.531250
2570,-19.531250
2571,-19.531250
2572,-19.531250
2573,-19.531250
2574,-23.437500
2575,-23.437500
2576,-23.437500
2577,-23.437500
2578,-23.437500
2579,-23.437500
2580,-23.437500
2581,-23.437500
2582,-23.437500
2583,-27.343750
2584,-27.343750
2585,-27.343750
2586,-27.343750
2587,-27.343750
2588,-27.343750
2589,-27.343750
2590,-27.343750
2591,-31.250000
2592,-31.250000
2593,-31.250000
2594,-31.250000
2595,-35.156250
2596,-31.250000
2597,-31.250000
2598,-31.250000
2599,-35.156250
2600,-35.156250
2601,-35.156250
2602,-35.156250
2603,-35.156250
2604,-35.156250
2605,-35.156250
2606,-35.156250
2607,-35.156250
2608,-39.062500
2609,-39.062500
2610,-39.062500
2611,-39.062500
2612,-39.062500
2613,-39.062500
2614,-39.062500
2615,-39.062500
2616,-39.062500
2617,-42.968750
2618,-42.968750
2619,-42.968750
2620,-42.968750
2621,-42.968750
2622,-42.968750
2623,-42.968750
2624,-42.968750
2625,-46.875000
2626,-46.875000
2627,-46.875000
2628,-46.875000
2629,-46.875000
2630,-46.875000
2631,-46.875000
2632,-46.875000
2633,-46.875000
2634,-46.875000
2635,-46.875000
2636,-46.875000
2637,-50.781250
2638,-50.781250
2639,-50.781250
2640,-50.781250
2641,-50.781250
2642,-50.781250
2643,-50.781250
2644,-50.781250
2645,-54.687500
2646,-54.687500
2647,-54.687500
2648,-54.687500
2649,-54.687500
2650,-54.687500
2651,-54.687500
2652,-54.687500
2653,-54.687500
2654,-58.593750
2655,-58.593750
2656,-58.593750
2657,-58.593750
2658,-58.593750
2659,-58.593750
2660,-58.593750
2661,-58.593750
2662,-58.593750
2663,-58.593750
2664,-62.500000
2665,-62.500000
2666,-62.500000
2667,-62.500000
2668,-62.500000
2669,-62.500000
2670,-62.500000
2671,-62.500000
2672,-62.500000
2673,-62.500000
2674,-62.500000
2675,-62.500000
2676,-62.500000
2677,-66.406250
2678,-66.406250
2679,-66.406250
2680,-66.406250
2681,-66.406250
2682,-66.406250
2683,-66.406250
2684,-66.406250
2685,-66.406250
2686,-70.312500
2687,-70.312500
2688,-70.312500
2689,-70.312500
2690,-70.312500
2691,-70.312500
2692,-70.312500
2693,-70.312500
2694,-70.312500
2695,-70.312500
2696,-70.312500
2697,-70.312500
2698,-70.312500
2699,-70.312500
2700,-74.218750
2701,-74.218750
2702,-74.218750
2703,-74.218750
2704,-74.218750
2705,-74.218750
2706,-74.218750
2707,-74.218750
2708,-74.218750
2709,-74.218750
2710,-74.218750
2711,-74.218750
2712,-78.125000
2713,-78.125000
2714,-78.125000
2715,-78.125000
2716,-78.125000
2717,-78.125000
2718,-78.125000
2719,-78.125000
2720,-78.125000
2721,-78.125000
2722,-78.125000
2723,-78.125000
2724,-78.125000
2725,-78.125000
2726,-78.125000
2727,-78.125000
2728,-78.125000
2729,-78.125000
2730,-82.031250
2731,-82.031250
2732,-82.031250
2733,-82.031250
2734,-82.031250
2735,-82.031250
2736,-82.031250
2737,-82.031250
2738,-82.031250
2739,-82.031250
2740,-82.031250
2741,-82.031250
2742,-82.031250
2743,-82.031250
2744,-82.031250
2745,-82.031250
2746,-82.031250
2747,-82.031250
2748,-82.031250
2749,-82.031250
2750,-82.031250
2751,-85.937500
2752,-85.937500
2753,-85.937500
2754,-85.937500
2755,-85.937500
2756,-85.937500
2757,-85.937500
2758,-85.937500
2759,-85.937500
2760,-85.937500
2761,-85.937500
2762,-85.937500
2763,-85.937500
2764,-85.937500
2765,-85.937500
2766,-85.937500
2767,-85.937500
2768,-85.937500
2769,-85.937500
2770,-85.937500
2771,-85.937500
2772,-85.937500
2773,-85.937500
2774,-85.937500
2775,-85.937500
2776,-85.937500
2777,-85.937500
2778,-85.937500
2779,-85.937500
2780,-85.937500
2781,-85.937500
2782,-85.937500
2783,-85.937500
2784,-85.937500
2785,-85.937500
2786,-85.937500
2787,-85.937500
2788,-85.937500
2789,-85.937500
2790,-85.937500
2791,-85.937500
2792,-85.937500
2793,-85.937500
2794,-85.937500
2795,-85.937500
2796,-85.937500
2797,-85.937500
2798,-85.937500
2799,-85.937500
2800,-85.937500
2801,-85.937500
2802,-85.937500
2803,-85.937500
2804,-85.937500
2805,-85.937500
2806,-85.937500
2807,-85.937500
2808,-85.937500
2809,-85.937500
2810,-85.937500
2811,-85.937500
2812,-85.937500
2813,-85.937500
2814,-85.937500
2815,-85.937500
2816,-85.937500
2817,-85.937500
2818,-85.937500
2819,-85.937500
2820,-85.937500
2821,-85.937500
2822,-85.937500
2823,-85.937500
2824,-85.937500
2825,-85.937500
2826,-85.937500
2827,-85.937500
2828,-85.937500
2829,-85.937500
2830,-85.937500
2831,-85.937500
2832,-85.937500
2833,-85.937500
2834,-85.937500
2835,-85.937500
2836,-85.937500
2837,-85.937500
2838,-85.937500
2839,-85.937500
2840,-85.937500
2841,-85.937500
2842,-82.031250
2843,-82.031250
2844,-82.031250
2845,-82.031250
2846,-82.031250
2847,-82.031250
2848,-82.031250
2849,-82.031250
2850,-82.031250
2851,-82.031250
2852,-82.031250
2853,-82.031250
2854,-82.031250
2855,-82.031250
2856,-82.031250
2857,-82.031250
2858,-82.031250
2859,-82.031250
2860,-82.031250
2861,-82.031250
2862,-82.031250
2863,-82.031250
2864,-82.031250
2865,-78.125000
2866,-78.125000
2867,-78.125000
2868,-78.125000
2869,-78.125000
2870,-78.125000
2871,-78.125000
2872,-78.125000
2873,-78.125000
2874,-78.125000
2875,-78.125000
2876,-78.125000
2877,-78.125000
2878,-78.125000
2879,-78.125000
2880,-78.125000
2881,-74.218750
2882,-74.218750
2883,-74.218750
2884,-74.218750
2885,-74.218750
2886,-74.218750
2887,-74.218750
2888,-74.218750
2889,-74.218750
2890,-74.218750
2891,-74.218750
2892,-74.218750
2893,-74.218750
2894,-70.312500
2895,-70.312500
2896,-70.312500
2897,-70.312500
2898,-70.312500
2899,-70.312500
2900,-70.312500
2901,-70.312500
2902,-70.312500
2903,-70.312500
2904,-70.312500
2905,-70.312500
2906,-70.312500
2907,-66.406250
2908,-66.406250
2909,-66.406250
2910,-66.406250
2911,-66.406250
2912,-66.406250
2913,-66.406250
2914,-66.406250
2915,-66.406250
2916,-66.406250
2917,-66.406250
2918,-66.406250
2919,-66.406250
2920,-62.500000
2921,-62.500000
2922,-62.500000
2923,-62.500000
2924,-62.500000
2925,-62.500000
2926,-62.500000
2927,-62.500000
2928,-62.500000
2929,-58.593750
2930,-62.500000
2931,-58.593750
2932,-58.593750
2933,-58.593750
2934,-58.593750
2935,-58.593750
2936,-58.593750
2937,-58.593750
2938,-58.593750
2939,-58.593750
2940,-58.593750
2941,-54.687500
2942,-54.687500
2943,-54.687500
2944,-54.687500
2945,-54.687500
2946,-54.687500
2947,-54.687500
2948,-54.687500
2949,-54.687500
2950,-54.687500
2951,-50.781250
2952,-50.781250
2953,-50.781250
2954,-50.781250
2955,-50.781250
2956,-50.781250
2957,-50.781250
2958,-50.781250
2959,-50.781250
2960,-46.875000
2961,-46.875000
2962,-46.875000
2963,-46.875000
2964,-46.875000
2965,-46.875000
2966,-46.875000
2967,-46.875000
2968,-46.875000
2969,-46.875000
2970,-46.875000
2971,-42.968750
2972,-42.968750
2973,-42.968750
2974,-42.968750
2975,-42.968750
2976,-42.968750
2977,-42.968750
2978,-39.062500
2979,-42.968750
2980,-39.062500
2981,-39.062500
2982,-39.062500
2983,-39.062500
2984,-39.062500
2985,-35.156250
2986,-35.156250
2987,-35.156250
2988,-35.156250
2989,-35.156250
2990,-35.156250
2991,-35.156250
2992,-35.156250
2993,-35.156250
2994,-35.156250
2995,-31.250000
2996,-31.250000
2997,-31.250000
2998,-31.250000
2999,-31.250000
3000,-31.250000
3001,-31.250000
3002,-31.250000
3003,-27.343750
3004,-27.343750
3005,-27.343750
3006,-27.343750
3007,-27.343750
3008,-27.343750
3009,-27.343750
3010,-27.343750
3011,-27.343750
3012,-23.437500
3013,-23.437500
3014,-23.437500
3015,-23.437500
3016,-23.437500
3017,-23.437500
3018,-23.437500
3019,-23.437500
3020,-19.531250
3021,-19.531250
3022,-19.531250
3023,-19.531250
3024,-19.531250
3025,-19.531250
3026,-19.531250
3027,-19.531250
3028,-19.531250
3029,-19.531250
3030,-19.531250
3031,-15.625000
3032,-15.625000
3033,-15.625000
3034,-15.625000
3035,-15.625000
3036,-15.625000
3037,-15.625000
3038,-11.718750
3039,-11.718750
3040,-11.718750
3041,-11.718750
3042,-11.718750
3043,-11.718750
3044,-11.718750
3045,-11.718750
3046,-11.718750
3047,-7.812500
3048,-7.812500
3049,-7.812500
3050,-11.718750
3051,-7.812500
3052,-7.812500
3053,-7.812500
3054,-7.812500
3055,-7.812500
3056,-3.906250
3057,-3.906250
3058,-3.906250
3059,-3.906250
3060,-3.906250
3061,-3.906250
3062,-3.906250
3063,-3.906250
3064,0.000000
3065,0.000000
3066,0.000000
3067,0.000000
3068,0.000000
3069,0.000000
3070,0.000000
3071,3.906250
3072,0.000000
3073,3.906250
3074,3.906250
3075,3.906250
3076,3.906250
3077,3.906250
3078,3.906250
3079,3.906250
3080,3.906250
3081,7.812500
3082,7.812500
3083,7.812500
3084,7.812500
3085,3.906250
3086,7.812500
3087,7.812500
3088,7.812500
3089,11.718750
3090,11.718750
3091,11.718750
3092,11.718750
3093,11.718750
3094,11.718750
3095,11.718750
3096,11.718750
3097,11.718750
3098,11.718750
3099,15.625000
3100,15.625000
3101,15.625000
3102,15.625000
3103,15.625000
3104,15.625000
3105,15.625000
3106,15.625000
3107,19.531250
3108,15.625000
3109,19.531250
3110,19.531250
3111,19.531250
3112,19.531250
3113,19.531250
3114,19.531250
3115,19.531250
3116,19.531250
3117,19.531250
3118,23.437500
3119,23.437500
3120,19.531250
3121,23.437500
3122,23.437500
3123,23.437500
3124,23.437500
3125,23.437500
3126,23.437500
3127,23.437500
3128,27.343750
3129,23.437500
3130,27.343750
3131,27.343750
3132,27.343750
3133,27.343750
3134,27.343750
3135,27.343750
3136,27.343750
3137,27.343750
3138,31.250000
3139,31.250000
3140,31.250000
3141,31.250000
3142,31.250000
3143,31.250000
3144,31.250000
3145,31.250000
3146,31.250000
3147,31.250000
3148,31.250000
3149,35.156250
3150,31.250000
3151,35.156250
3152,35.156250
3153,35.156250
3154,35.156250
3155,35.156250
3156,35.156250
3157,35.156250
3158,35.156250
3159,35.156250
3160,35.156250
3161,39.062500
3162,39.062500
3163,39.062500
3164,39.062500
3165,39.062500
3166,39.062500
3167,39.062500
3168,39.062500
3169,39.062500
3170,39.062500
3171,39.062500
3172,39.062500
3173,39.062500
3174,39.062500
3175,42.968750
3176,42.968750
3177,42.968750
3178,42.968750
3179,42.968750
3180,42.968750
3181,42.968750
3182,42.968750
3183,42.968750
3184,42.968750
3185,42.968750
3186,42.968750
3187,42.968750
3188,42.968750
3189,42.968750
3190,46.875000
3191,46.875000
3192,46.875000
3193,46.875000
3194,46.875000
3195,46.875000
3196,46.875000
3197,46.875000
3198,46.875000
3199,46.875000
3200,46.875000
3201,46.875000
3202,46.875000
3203,46.875000
3204,46.875000
3205,46.875000
3206,46.875000
3207,46.875000
3208,50.781250
3209,50.781250
3210,50.781250
3211,50.781250
3212,50.781250
3213,50.781250
3214,50.781250
3215,50.781250
3216,50.781250
3217,50.781250
3218,50.781250
3219,50.781250
3220,50.781250
3221,50.781250
3222,50.781250
3223,50.781250
3224,50.781250
3225,50.781250
3226,50.781250
3227,54.687500
3228,54.687500
3229,54.687500
3230,54.687500
3231,54.687500
3232,50.781250
3233,54.687500
3234,54.687500
3235,54.687500
3236,54.687500
3237,54.687500
3238,54.687500
3239,54.687500
3240,54.687500
3241,54.687500
3242,54.687500
3243,54.687500
3244,54.687500
3245,54.687500
3246,54.687500
3247,54.687500
3248,54.687500
3249,54.687500
3250,54.687500
3251,54.687500
3252,54.687500
3253,54.687500
3254,54.687500
3255,54.687500
3256,54.687500
3257,58.593750
3258,58.593750
3259,54.687500
3260,54.687500
3261,58.593750
3262,58.593750
3263,58.593750
3264,58.593750
3265,58.593750
3266,58.593750
3267,58.593750
3268,58.593750
3269,58.593750
3270,58.593750
3271,58.593750
3272,58.593750
3273,58.593750
3274,58.593750
3275,58.593750
3276,58.593750
3277,58.593750
3278,58.593750
3279,58.593750
3280,58.593750
3281,58.593750
3282,58.593750
3283,58.593750
3284,58.593750
3285,58.593750
3286,58.593750
3287,58.593750
3288,58.593750
3289,58.593750
3290,58.593750
3291,58.593750
3292,58.593750
3293,58.593750
3294,58.593750
3295,58.593750
3296,58.593750
3297,58.593750
3298,58.593750
3299,58.593750
3300,58.593750
3301,58.593750
3302,58.593750
3303,58.593750
3304,58.593750
3305,58.593750
3306,58.593750
3307,58.593750
3308,58.593750
3309,58.593750
3310,58.593750
3311,58.593750
3312,58.593750
3313,58.593750
3314,58.593750
3315,58.593750
3316,54.687500
3317,58.593750
3318,58.593750
3319,58.593750
3320,58.593750
3321,58.593750
3322,54.687500
3323,54.687500
3324,54.687500
3325,58.593750
3326,54.687500
3327,54.687500
3328,54.687500
3329,54.687500
3330,54.687500
3331,54.687500
3332,54.687500
3333,54.687500
3334,54.687500
3335,54.687500
3336,54.687500
3337,54.687500
3338,54.687500
3339,54.687500
3340,54.687500
3341,54.687500
3342,54.687500
3343,54.687500
3344,54.687500
3345,54.687500
3346,54.687500
3347,54.687500
3348,54.687500
3349,54.687500
3350,54.687500
3351,54.687500
3352,54.687500
3353,54.687500
3354,54.687500
3355,50.781250
3356,50.781250
3357,50.781250
3358,50.781250
3359,50.781250
3360,50.781250
3361,50.781250
3362,50.781250
3363,50.781250
3364,50.781250
3365,50.781250
3366,50.781250
3367,50.781250
3368,50.781250
3369,50.781250
3370,50.781250
3371,50.781250
3372,50.781250
3373,50.781250
3374,50.781250
3375,50.781250
3376,46.875000
3377,46.875000
3378,50.781250
3379,46.875000
3380,46.875000
3381,46.875000
3382,46.875000
3383,46.875000
3384,46.875000
3385,46.875000
3386,46.875000
3387,46.875000
3388,46.875000
3389,46.875000
3390,46.875000
3391,46.875000
3392,42.968750
3393,46.875000
3394,46.875000
3395,42.968750
3396,42.968750
3397,46.875000
3398,42.968750
3399,42.968750
3400,42.968750
3401,42.968750
3402,42.968750
3403,42.968750
3404,42.968750
3405,42.968750
3406,42.968750
3407,42.968750
3408,39.062500
3409,39.062500
3410,39.062500
3411,39.062500
3412,39.062500
3413,39.062500
3414,39.062500
3415,39.062500
3416,39.062500
3417,39.062500
3418,39.062500
3419,39.062500
3420,39.062500
3421,39.062500
3422,39.062500
3423,35.156250
3424,35.156250
3425,35.156250
3426,35.156250
3427,35.156250
3428,35.156250
3429,35.156250
3430,35.156250
3431,35.156250
3432,35.156250
3433,35.156250
3434,31.250000
3435,31.250000
3436,31.250000
3437,31.250000
3438,31.250000
3439,31.250000
3440,31.250000
3441,31.250000
3442,31.250000
3443,31.250000
3444,31.250000
3445,31.250000
3446,27.343750
3447,27.343750
3448,27.343750
3449,27.343750
3450,27.343750
3451,27.343750
3452,27.343750
3453,27.343750
3454,27.343750
3455,27.343750
3456,23.437500
3457,23.437500
3458,23.437500
3459,23.437500
3460,23.437500
3461,23.437500
3462,23.437500
3463,23.437500
3464,23.437500
3465,19.531250
3466,23.437500
3467,19.531250
3468,19.531250
3469,19.531250
3470,19.531250
3471,19.531250
3472,19.531250
3473,19.531250
3474,19.531250
3475,19.531250
3476,19.531250
3477,15.625000
3478,15.625000
3479,15.625000
3480,15.625000
3481,15.625000
3482,15.625000
3483,15.625000
3484,15.625000
3485,15.625000
3486,11.718750
3487,11.718750
3488,11.718750
3489,11.718750
3490,11.718750
3491,11.718750
3492,11.718750
3493,11.718750
3494,11.718750
3495,7.812500
3496,7.812500
3497,7.812500
3498,7.812500
3499,7.812500
3500,7.812500
3501,7.812500
3502,7.812500
3503,7.812500
3504,7.812500
3505,3.906250
3506,3.906250
3507,3.906250
3508,3.906250
3509,3.906250
3510,3.906250
3511,3.906250
3512,3.906250
3513,0.000000
3514,0.000000
3515,0.000000
3516,0.000000
3517,0.000000
3518,0.000000
3519,0.000000
3520,0.000000
3521,0.000000
3522,-3.906250
3523,-3.906250
3524,-3.906250
3525,-3.906250
3526,-3.906250
3527,-3.906250
3528,-3.906250
3529,-3.906250
3530,-7.812500
3531,-7.812500
3532,-7.812500
3533,-7.812500
3534,-7.812500
3535,-7.812500
3536,-7.812500
3537,-7.812500
3538,-11.718750
3539,-11.718750
3540,-11.718750
3541,-11.718750
3542,-11.718750
3543,-11.718750
3544,-11.718750
3545,-11.718750
3546,-11.718750
3547,-11.718750
3548,-11.718750
3549,-15.625000
3550,-15.625000
3551,-15.625000
3552,-15.625000
3553,-15.625000
3554,-15.625000
3555,-15.625000
3556,-19.531250
3557,-19.531250
3558,-19.531250
3559,-19.531250
3560,-19.531250
3561,-19.531250
3562,-19.531250
3563,-19.531250
3564,-23.437500
3565,-23.437500
3566,-23.437500
3567,-23.437500
3568,-23.437500
3569,-23.437500
3570,-23.437500
3571,-23.437500
3572,-23.437500
3573,-27.343750
3574,-27.343750
3575,-27.343750
3576,-27.343750
3577,-27.343750
3578,-27.343750
3579,-27.343750
3580,-31.250000
3581,-31.250000
3582,-31.250000
3583,-31.250000
3584,-31.250000
3585,-31.250000
3586,-31.250000
3587,-31.250000
3588,-35.156250
3589,-35.156250
3590,-35.156250
3591,-35.156250
3592,-35.156250
3593,-35.156250
3594,-35.156250
3595,-35.156250
3596,-35.156250
3597,-35.156250
3598,-39.062500
3599,-39.062500
3600,-39.062500
3601,-39.062500
3602,-39.062500
3603,-39.062500
3604,-39.062500
3605,-39.062500
3606,-42.968750
3607,-42.968750
3608,-42.968750
3609,-42.968750
3610,-42.968750
3611,-42.968750
3612,-42.968750
3613,-42.968750
3614,-42.968750
3615,-46.875000
3616,-46.875000
3617,-46.875000
3618,-46.875000
3619,-46.875000
3620,-46.875000
3621,-46.875000
3622,-46.875000
3623,-46.875000
3624,-46.875000
3625,-50.781250
3626,-50.781250
3627,-50.781250
3628,-50.781250
3629,-50.781250
3630,-50.781250
3631,-50.781250
3632,-50.781250
3633,-50.781250
3634,-54.687500
3635,-54.687500
3636,-54.687500
3637,-54.687500
3638,-54.687500
3639,-54.687500
3640,-54.687500
3641,-54.687500
3642,-54.687500
3643,-54.687500
3644,-58.593750
3645,-58.593750
3646,-58.593750
3647,-58.593750
3648,-58.593750
3649,-58.593750
3650,-58.593750
3651,-58.593750
3652,-58.593750
3653,-58.593750
3654,-62.500000
3655,-62.500000
3656,-62.500000
3657,-62.500000
3658,-62.500000
3659,-62.500000
3660,-62.500000
3661,-62.500000
3662,-62.500000
3663,-62.500000
3664,-62.500000
3665,-62.500000
3666,-66.406250
3667,-66.406250
3668,-66.406250
3669,-66.406250
3670,-66.406250
3671,-66.406250
3672,-66.406250
3673,-66.406250
3674,-66.406250
3675,-66.406250
3676,-70.312500
3677,-70.312500
3678,-70.312500
3679,-70.312500
3680,-70.312500
3681,-70.312500
3682,-70.312500
3683,-70.312500
3684,-70.312500
3685,-70.312500
3686,-70.312500
3687,-70.312500
3688,-70.312500
3689,-74.218750
3690,-74.218750
3691,-74.218750
3692,-74.218750
3693,-74.218750
3694,-74.218750
3695,-74.218750
3696,-74.218750
3697,-74.218750
3698,-74.218750
3699,-74.218750
3700,-78.125000
3701,-74.218750
3702,-74.218750
3703,-78.125000
3704,-78.125000
3705,-78.125000
3706,-78.125000
3707,-78.125000
3708,-74.218750
3709,-78.125000
3710,-78.125000
3711,-78.125000
3712,-78.125000
3713,-78.125000
3714,-78.125000
3715,-78.125000
3716,-78.125000
3717,-78.125000
3718,-82.031250
3719,-82.031250
3720,-82.031250
3721,-82.031250
3722,-82.031250
3723,-82.031250
3724,-82.031250
3725,-82.031250
3726,-82.031250
3727,-82.031250
3728,-82.031250
3729,-82.031250
3730,-82.031250
3731,-82.031250
3732,-82.031250
3733,-82.031250
3734,-82.031250
3735,-82.031250
3736,-82.031250
3737,-82.031250
3738,-82.031250
3739,-82.031250
3740,-85.937500
3741,-85.937500
3742,-85.937500
3743,-82.031250
3744,-85.937500
3745,-85.937500
3746,-85.937500
3747,-85.937500
3748,-85.937500
3749,-85.937500
3750,-85.937500
3751,-85.937500
3752,-85.937500
3753,-85.937500
3754,-85.937500
3755,-85.937500
3756,-85.937500
3757,-85.937500
3758,-85.937500
3759,-85.937500
3760,-85.937500
3761,-85.937500
3762,-85.937500
3763,-85.937500
3764,-85.937500
3765,-85.937500
3766,-85.937500
3767,-85.937500
3768,-85.937500
3769,-85.937500
3770,-85.937500
3771,-85.937500
3772,-85.937500
3773,-85.937500
3774,-85.937500
3775,-85.937500
3776,-85.937500
3777,-85.937500
3778,-85.937500
3779,-85.937500
3780,-85.937500
3781,-85.937500
3782,-85.937500
3783,-85.937500
3784,-85.937500
3785,-85.937500
3786,-85.937500
3787,-85.937500
3788,-85.937500
3789,-85.937500
3790,-85.937500
3791,-85.937500
3792,-85.937500
3793,-85.937500
3794,-85.937500
3795,-85.937500
3796,-85.937500
3797,-85.937500
3798,-85.937500
3799,-85.937500
3800,-85.937500
3801,-85.937500
3802,-85.937500
3803,-85.937500
3804,-85.937500
3805,-85.937500
3806,-85.937500
3807,-85.937500
3808,-85.937500
3809,-85.937500
3810,-85.937500
3811,-85.937500
3812,-85.937500
3813,-85.937500
3814,-85.937500
3815,-85.937500
3816,-85.937500
3817,-85.937500
3818,-85.937500
3819,-85.937500
3820,-85.937500
3821,-85.937500
3822,-85.937500
3823,-85.937500
3824,-85.937500
3825,-85.937500
3826,-85.937500
3827,-85.937500
3828,-85.937500
3829,-85.937500
3830,-85.937500
3831,-85.937500
3832,-85.937500
3833,-85.937500
3834,-82.031250
3835,-82.031250
3836,-82.031250
3837,-82.031250
3838,-82.031250
3839,-82.031250
3840,-82.031250
3841,-82.031250
3842,-82.031250
3843,-82.031250
3844,-82.031250
3845,-82.031250
3846,-82.031250
3847,-82.031250
3848,-82.031250
3849,-82.031250
3850,-82.031250
3851,-82.031250
3852,-82.031250
3853,-82.031250
3854,-82.031250
3855,-78.125000
3856,-78.125000
3857,-78.125000
3858,-78.125000
3859,-78.125000
3860,-78.125000
3861,-78.125000
3862,-78.125000
3863,-78.125000
3864,-78.125000
3865,-78.125000
3866,-78.125000
3867,-78.125000
3868,-78.125000
3869,-78.125000
3870,-78.125000
3871,-78.125000
3872,-78.125000
3873,-78.125000
3874,-74.218750
3875,-74.218750
3876,-74.218750
3877,-74.218750
3878,-74.218750
3879,-74.218750
3880,-74.218750
3881,-74.218750
3882,-74.218750
3883,-74.218750
3884,-74.218750
3885,-74.218750
3886,-70.312500
3887,-70.312500
3888,-70.312500
3889,-70.312500
3890,-70.312500
3891,-70.312500
3892,-70.312500
3893,-70.312500
3894,-70.312500
3895,-70.312500
3896,-70.312500
3897,-70.312500
3898,-70.312500
3899,-66.406250
3900,-66.406250
3901,-66.406250
3902,-66.406250
3903,-66.406250
3904,-66.406250
3905,-66.406250
3906,-66.406250
3907,-66.406250
3908,-66.406250
3909,-66.406250
3910,-62.500000
3911,-62.500000
3912,-62.500000
3913,-62.500000
3914,-62.500000
3915,-62.500000
3916,-62.500000
3917,-62.500000
3918,-62.500000
3919,-62.500000
3920,-58.593750
3921,-58.593750
3922,-62.500000
3923,-58.593750
3924,-58.593750
3925,-58.593750
3926,-58.593750
3927,-58.593750
3928,-58.593750
3929,-58.593750
3930,-58.593750
3931,-54.687500
3932,-54.687500
3933,-54.687500
3934,-54.687500
3935,-54.687500
3936,-54.687500
3937,-54.687500
3938,-54.687500
3939,-50.781250
3940,-54.687500
3941,-54.687500
3942,-50.781250
3943,-50.781250
3944,-50.781250
3945,-50.781250
3946,-50.781250
3947,-50.781250
3948,-50.781250
3949,-50.781250
3950,-50.781250
3951,-46.875000
3952,-46.875000
3953,-46.875000
3954,-46.875000
3955,-46.875000
3956,-46.875000
3957,-46.875000
3958,-46.875000
3959,-42.968750
3960,-46.875000
3961,-42.968750
3962,-42.968750
3963,-42.968750
3964,-42.968750
3965,-42.968750
3966,-42.968750
3967,-39.062500
3968,-42.968750
3969,-39.062500
3970,-39.062500
3971,-39.062500
3972,-39.062500
3973,-39.062500
3974,-39.062500
3975,-39.062500
3976,-39.062500
3977,-35.156250
3978,-35.156250
3979,-35.156250
3980,-35.156250
3981,-35.156250
3982,-35.156250
3983,-35.156250
3984,-35.156250
3985,-35.156250
3986,-31.250000
3987,-31.250000
3988,-31.250000
3989,-31.250000
3990,-31.250000
3991,-31.250000
3992,-31.250000
3993,-27.343750
3994,-27.343750
3995,-27.343750
3996,-27.343750
3997,-27.343750
3998,-27.343750
3999,-27.343750
4000,-27.343750
4001,-23.437500
4002,-23.437500
4003,-23.437500
4004,-23.437500
4005,-23.437500
4006,-23.437500
4007,-23.437500
4008,-23.437500
4009,-23.437500
4010,-19.531250
4011,-19.531250
4012,-19.531250
4013,-19.531250
4014,-19.531250
4015,-19.531250
4016,-19.531250
4017,-19.531250
4018,-19.531250
4019,-15.625000
4020,-15.625000
4021,-15.625000
4022,-15.625000
4023,-15.625000
4024,-15.625000
4025,-15.625000
4026,-15.625000
4027,-11.718750
4028,-11.718750
4029,-11.718750
4030,-11.718750
4031,-11.718750
4032,-11.718750
4033,-11.718750
4034,-11.718750
4035,-7.812500
4036,-7.812500
4037,-7.812500
4038,-7.812500
4039,-7.812500
4040,-7.812500
4041,-7.812500
4042,-7.812500
4043,-7.812500
4044,-3.906250
4045,-3.906250
4046,-3.906250
4047,-3.906250
4048,-3.906250
4049,-3.906250
4050,-3.906250
4051,0.000000
4052,0.000000
4053,0.000000
4054,0.000000
4055,0.000000
4056,0.000000
4057,0.000000
4058,0.000000
4059,0.000000
4060,3.906250
4061,3.906250
4062,3.906250
4063,3.906250
4064,3.906250
4065,3.906250
4066,3.906250
4067,3.906250
4068,3.906250
4069,7.812500
4070,7.812500
4071,7.812500
4072,7.812500
4073,7.812500
4074,7.812500
4075,7.812500
4076,7.812500
4077,11.718750
4078,7.812500
4079,11.718750
4080,11.718750
4081,11.718750
4082,11.718750
4083,11.718750
4084,11.718750
4085,11.718750
4086,11.718750
4087,11.718750
4088,15.625000
4089,15.625000
4090,15.625000
4091,15.625000
4092,15.625000
4093,15.625000
4094,15.625000
4095,15.625000
4096,15.625000
4097,15.625000
4098,19.531250
4099,19.531250
4100,19.531250
4101,19.531250
4102,19.531250
4103,19.531250
4104,19.531250
4105,19.531250
4106,19.531250
4107,23.437500
4108,19.531250
4109,23.437500
4110,23.437500
4111,23.437500
4112,23.437500
4113,23.437500
4114,23.437500
4115,23.437500
4116,23.437500
4117,27.343750
4118,27.343750
4119,27.343750
4120,27.343750
4121,27.343750
4122,27.343750
4123,27.343750
4124,27.343750
4125,27.343750
4126,27.343750
4127,27.343750
4128,27.343750
4129,27.343750
4130,31.250000
4131,31.250000
4132,31.250000
4133,31.250000
4134,31.250000
4135,31.250000
4136,31.250000
4137,31.250000
4138,31.250000
4139,35.156250
4140,35.156250
4141,35.156250
4142,35.156250
4143,35.156250
4144,35.156250
4145,35.156250
4146,35.156250
4147,35.156250
4148,35.156250
4149,35.156250
4150,35.156250
4151,35.156250
4152,39.062500
4153,39.062500
4154,39.062500
4155,39.062500
4156,39.062500
4157,39.062500
4158,39.062500
4159,39.062500
4160,39.062500
4161,42.968750
4162,39.062500
4163,39.062500
4164,42.968750
4165,42.968750
4166,42.968750
4167,42.968750
4168,42.968750
4169,42.968750
4170,42.968750
4171,42.968750
4172,42.968750
4173,42.968750
4174,42.968750
4175,42.968750
4176,42.968750
4177,42.968750
4178,42.968750
4179,46.875000
4180,46.875000
4181,46.875000
4182,46.875000
4183,46.875000
4184,46.875000
4185,46.875000
4186,46.875000
4187,46.875000
4188,46.875000
4189,46.875000
4190,46.875000
4191,46.875000
4192,46.875000
4193,46.875000
4194,46.875000
4195,50.781250
4196,50.781250
4197,50.781250
4198,50.781250
4199,50.781250
4200,50.781250
4201,50.781250
4202,50.781250
4203,50.781250
4204,50.781250
4205,50.781250
4206,50.781250
4207,50.781250
4208,50.781250
4209,50.781250
4210,50.781250
4211,50.781250
4212,50.781250
4213,50.781250
4214,54.687500
4215,50.781250
4216,50.781250
4217,50.781250
4218,54.687500
4219,54.687500
4220,54.687500
4221,54.687500
4222,54.687500
4223,54.687500
4224,54.687500
4225,50.781250
4226,54.687500
4227,54.687500
4228,54.687500
4229,54.687500
4230,54.687500
4231,54.687500
4232,54.687500
4233,54.687500
4234,54.687500
4235,54.687500
4236,54.687500
4237,54.687500
4238,54.687500
4239,54.687500
4240,54.687500
4241,54.687500
4242,54.687500
4243,54.687500
4244,54.687500
4245,54.687500
4246,54.687500
4247,54.687500
4248,54.687500
4249,54.687500
4250,54.687500
4251,54.687500
4252,58.593750
4253,58.593750
4254,58.593750
4255,58.593750
4256,58.593750
4257,58.593750
4258,58.593750
4259,58.593750
4260,58.593750
4261,58.593750
4262,58.593750
4263,58.593750
4264,58.593750
4265,58.593750
4266,58.593750
4267,58.593750
4268,58.593750
4269,58.593750
4270,58.593750
4271,58.593750
4272,58.593750
4273,58.593750
4274,58.593750
4275,58.593750
4276,58.593750
4277,58.593750
4278,58.593750
4279,58.593750
4280,58.593750
4281,58.593750
4282,58.593750
4283,58.593750
4284,58.593750
4285,58.593750
4286,58.593750
4287,58.593750
4288,58.593750
4289,58.593750
4290,58.593750
4291,58.593750
4292,58.593750
4293,58.593750
4294,58.593750
4295,58.593750
4296,58.593750
4297,58.593750
4298,58.593750
4299,58.593750
4300,58.593750
4301,58.593750
4302,58.593750
4303,58.593750
4304,58.593750
4305,58.593750
4306,58.593750
4307,58.593750
4308,58.593750
4309,58.593750
4310,54.687500
4311,54.687500
4312,54.687500
4313,54.687500
4314,58.593750
4315,54.687500
4316,58.593750
4317,54.687500
4318,54.687500
4319,54.687500
4320,54.687500
4321,54.687500
4322,54.687500
4323,54.687500
4324,54.687500
4325,54.687500
4326,54.687500
4327,54.687500
4328,54.687500
4329,54.687500
4330,54.687500
4331,54.687500
4332,54.687500
4333,54.687500
4334,54.687500
4335,54.687500
4336,54.687500
4337,54.687500
4338,54.687500
4339,54.687500
4340,54.687500
4341,54.687500
4342,54.687500
4343,54.687500
4344,54.687500
4345,54.687500
4346,54.687500
4347,50.781250
4348,50.781250
4349,50.781250
4350,50.781250
4351,50.781250
4352,50.781250
4353,50.781250
4354,50.781250
4355,50.781250
4356,50.781250
4357,50.781250
4358,50.781250
4359,50.781250
4360,50.781250
4361,50.781250
4362,50.781250
4363,50.781250
4364,50.781250
4365,50.781250
4366,46.875000
4367,50.781250
4368,46.875000
4369,46.875000
4370,46.875000
4371,46.875000
4372,46.875000
4373,46.875000
4374,46.875000
4375,46.875000
4376,46.875000
4377,46.875000
4378,46.875000
4379,46.875000
4380,46.875000
4381,46.875000
4382,42.968750
4383,46.875000
4384,42.968750
4385,42.968750
4386,42.968750
4387,42.968750
4388,42.968750
4389,42.968750
4390,42.968750
4391,42.968750
4392,42.968750
4393,42.968750
4394,42.968750
4395,42.968750
4396,39.062500
4397,39.062500
4398,39.062500
4399,39.062500
4400,39.062500
4401,39.062500
4402,39.062500
4403,39.062500
4404,39.062500
4405,39.062500
4406,39.062500
4407,39.062500
4408,39.062500
4409,39.062500
4410,39.062500
4411,39.062500
4412,35.156250
4413,39.062500
4414,35.156250
4415,35.156250
4416,35.156250
4417,35.156250
4418,35.156250
4419,35.156250
4420,35.156250
4421,35.156250
4422,35.156250
4423,35.156250
4424,31.250000
4425,31.250000
4426,31.250000
4427,31.250000
4428,31.250000
4429,31.250000
4430,31.250000
4431,31.250000
4432,31.250000
4433,31.250000
4434,27.343750
4435,27.343750
4436,27.343750
4437,27.343750
4438,27.343750
4439,27.343750
4440,27.343750
4441,27.343750
4442,27.343750
4443,27.343750
4444,27.343750
4445,27.343750
4446,23.437500
4447,27.343750
4448,23.437500
4449,23.437500
4450,23.437500
4451,23.437500
4452,23.437500
4453,23.437500
4454,23.437500
4455,23.437500
4456,23.437500
4457,19.531250
4458,19.531250
4459,19.531250
4460,19.531250
4461,19.531250
4462,19.531250
4463,19.531250
4464,19.531250
4465,19.531250
4466,19.531250
4467,15.625000
4468,15.625000
4469,15.625000
4470,15.625000
4471,15.625000
4472,15.625000
4473,15.625000
4474,15.625000
4475,15.625000
4476,15.625000
4477,11.718750
4478,11.718750
4479,11.718750
4480,11.718750
4481,11.718750
4482,11.718750
4483,11.718750
4484,7.812500
4485,7.812500
4486,7.812500
4487,7.812500
4488,7.812500
4489,7.812500
4490,7.812500
4491,7.812500
4492,3.906250
4493,7.812500
4494,3.906250
4495,3.906250
4496,3.906250
4497,3.906250
4498,3.906250
4499,3.906250
4500,3.906250
4501,3.906250
4502,3.906250
4503,0.000000
4504,0.000000
4505,0.000000
4506,0.000000
4507,0.000000
4508,0.000000
4509,0.000000
4510,0.000000
4511,-3.906250
4512,-3.906250
4513,-3.906250
4514,-3.906250
4515,-3.906250
4516,-3.906250
4517,-3.906250
4518,-3.906250
4519,-3.906250
4520,-3.906250
4521,-7.812500
4522,-7.812500
4523,-7.812500
4524,-7.812500
4525,-7.812500
4526,-7.812500
4527,-7.812500
4528,-7.812500
4529,-11.718750
4530,-7.812500
4531,-11.718750
4532,-11.718750
4533,-11.718750
4534,-11.718750
4535,-11.718750
4536,-15.625000
4537,-11.718750
4538,-15.625000
4539,-15.625000
4540,-15.625000
4541,-15.625000
4542,-15.625000
4543,-15.625000
4544,-19.531250
4545,-19.531250
4546,-19.531250
4547,-19.531250
4548,-19.531250
4549,-19.531250
4550,-19.531250
4551,-19.531250
4552,-19.531250
4553,-23.437500
4554,-23.437500
4555,-23.437500
4556,-23.437500
4557,-23.437500
4558,-23.437500
4559,-23.437500
4560,-23.437500
4561,-27.343750
4562,-27.343750
4563,-27.343750
4564,-27.343750
4565,-27.343750
4566,-27.343750
4567,-27.343750
4568,-27.343750
4569,-27.343750
4570,-27.343750
4571,-31.250000
4572,-31.250000
4573,-31.250000
4574,-31.250000
4575,-31.250000
4576,-31.250000
4577,-31.250000
4578,-31.250000
4579,-31.250000
4580,-35.156250
4581,-35.156250
4582,-35.156250
4583,-35.156250
4584,-35.156250
4585,-35.156250
4586,-35.156250
4587,-39.062500
4588,-39.062500
4589,-39.062500
4590,-39.062500
4591,-39.062500
4592,-39.062500
4593,-39.062500
4594,-39.062500
4595,-39.062500
4596,-39.062500
4597,-42.968750
4598,-42.968750
4599,-42.968750
4600,-42.968750
4601,-42.968750
4602,-42.968750
4603,-42.968750
4604,-42.968750
4605,-42.968750
4606,-46.875000
4607,-46.875000
4608,-46.875000
4609,-46.875000
4610,-46.875000
4611,-46.875000
4612,-46.875000
4613,-46.875000
4614,-50.781250
4615,-46.875000
4616,-50.781250
4617,-50.781250
4618,-50.781250
4619,-50.781250
4620,-50.781250
4621,-50.781250
4622,-54.687500
4623,-54.687500
4624,-54.687500
4625,-54.687500
4626,-54.687500
4627,-54.687500
4628,-54.687500
4629,-54.687500
4630,-54.687500
4631,-58.593750
4632,-54.687500
4633,-54.687500
4634,-58.593750
4635,-58.593750
4636,-58.593750
4637,-58.593750
4638,-58.593750
4639,-58.593750
4640,-62.500000
4641,-58.593750
4642,-58.593750
4643,-58.593750
4644,-62.500000
4645,-62.500000
4646,-62.500000
4647,-62.500000
4648,-62.500000
4649,-62.500000
4650,-62.500000
4651,-62.500000
4652,-62.500000
4653,-62.500000
4654,-62.500000
4655,-66.406250
4656,-66.406250
4657,-66.406250
4658,-66.406250
4659,-66.406250
4660,-66.406250
4661,-66.406250
4662,-66.406250
4663,-66.406250
4664,-66.406250
4665,-66.406250
4666,-66.406250
4667,-70.312500
4668,-70.312500
4669,-70.312500
4670,-70.312500
4671,-70.312500
4672,-70.312500
4673,-70.312500
4674,-70.312500
4675,-70.312500
4676,-70.312500
4677,-70.312500
4678,-70.312500
4679,-70.312500
4680,-74.218750
4681,-74.218750
4682,-74.218750
4683,-74.218750
4684,-74.218750
4685,-74.218750
4686,-74.218750
4687,-74.218750
4688,-74.218750
4689,-74.218750
4690,-74.218750
4691,-74.218750
4692,-74.218750
4693,-74.218750
4694,-78.125000
4695,-78.125000
4696,-78.125000
4697,-78.125000
4698,-78.125000
4699,-78.125000
4700,-78.125000
4701,-78.125000
4702,-78.125000
4703,-78.125000
4704,-78.125000
4705,-78.125000
4706,-78.125000
4707,-78.125000
4708,-82.031250
4709,-78.125000
4710,-78.125000
4711,-78.125000
4712,-82.031250
4713,-82.031250
4714,-82.031250
4715,-82.031250
4716,-82.031250
4717,-82.031250
4718,-82.031250
4719,-82.031250
4720,-82.031250
4721,-82.031250
4722,-82.031250
4723,-82.031250
4724,-82.031250
4725,-82.031250
4726,-82.031250
4727,-82.031250
4728,-82.031250
4729,-82.031250
4730,-82.031250
4731,-82.031250
4732,-85.937500
4733,-85.937500
4734,-85.937500
4735,-85.937500
4736,-85.937500
4737,-85.937500
4738,-85.937500
4739,-85.937500
4740,-85.937500
4741,-85.937500
4742,-85.937500
4743,-85.937500
4744,-85.937500
4745,-85.937500
4746,-85.937500
4747,-85.937500
4748,-85.937500
4749,-85.937500
4750,-85.937500
4751,-85.937500
4752,-85.937500
4753,-85.937500
4754,-85.937500
4755,-85.937500
4756,-85.937500
4757,-85.937500
4758,-85.937500
4759,-85.937500
4760,-85.937500
4761,-85.937500
4762,-85.937500
4763,-85.937500
4764,-85.937500
4765,-85.937500
4766,-89.843750
4767,-85.937500
4768,-85.937500
4769,-85.937500
4770,-85.937500
4771,-85.937500
4772,-89.843750
4773,-85.937500
4774,-85.937500
4775,-85.937500
4776,-85.937500
4777,-85.937500
4778,-89.843750
4779,-85.937500
4780,-85.937500
4781,-85.937500
4782,-85.937500
4783,-85.937500
4784,-85.937500
4785,-85.937500
4786,-85.937500
4787,-85.937500
4788,-85.937500
4789,-85.937500
4790,-85.937500
4791,-85.937500
4792,-85.937500
4793,-85.937500
4794,-85.937500
4795,-85.937500
4796,-85.937500
4797,-85.937500
4798,-85.937500
4799,-85.937500
4800,-85.937500
4801,-85.937500
4802,-85.937500
4803,-85.937500
4804,-85.937500
4805,-85.937500
4806,-85.937500
4807,-85.937500
4808,-85.937500
4809,-85.937500
4810,-85.937500
4811,-85.937500
4812,-85.937500
4813,-85.937500
4814,-85.937500
4815,-85.937500
4816,-85.937500
4817,-85.937500
4818,-85.937500
4819,-85.937500
4820,-85.937500
4821,-82.031250
4822,-85.937500
4823,-82.031250
4824,-82.031250
4825,-82.031250
4826,-82.031250
4827,-82.031250
4828,-82.031250
4829,-82.031250
4830,-82.031250
4831,-82.031250
4832,-82.031250
4833,-82.031250
4834,-82.031250
4835,-82.031250
4836,-82.031250
4837,-82.031250
4838,-82.031250
4839,-82.031250
4840,-82.031250
4841,-78.125000
4842,-82.031250
4843,-82.031250
4844,-82.031250
4845,-78.125000
4846,-78.125000
4847,-78.125000
4848,-78.125000
4849,-78.125000
4850,-78.125000
4851,-78.125000
4852,-78.125000
4853,-78.125000
4854,-78.125000
4855,-78.125000
4856,-78.125000
4857,-78.125000
4858,-74.218750
4859,-74.218750
4860,-74.218750
4861,-78.125000
4862,-74.218750
4863,-78.125000
4864,-74.218750
4865,-74.218750
4866,-74.218750
4867,-74.218750
4868,-74.218750
4869,-74.218750
4870,-74.218750
4871,-74.218750
4872,-74.218750
4873,-74.218750
4874,-74.218750
4875,-70.312500
4876,-70.312500
4877,-70.312500
4878,-70.312500
4879,-70.312500
4880,-70.312500
4881,-70.312500
4882,-70.312500
4883,-70.312500
4884,-70.312500
4885,-70.312500
4886,-70.312500
4887,-70.312500
4888,-70.312500
4889,-66.406250
4890,-66.406250
4891,-66.406250
4892,-66.406250
4893,-66.406250
4894,-66.406250
4895,-66.406250
4896,-66.406250
4897,-66.406250
4898,-66.406250
4899,-62.500000
4900,-62.500000
4901,-62.500000
4902,-62.500000
4903,-62.500000
4904,-62.500000
4905,-62.500000
4906,-62.500000
4907,-62.500000
4908,-62.500000
4909,-62.500000
4910,-58.593750
4911,-58.593750
4912,-58.593750
4913,-58.593750
4914,-58.593750
4915,-58.593750
4916,-58.593750
4917,-58.593750
4918,-58.593750
4919,-58.593750
4920,-54.687500
4921,-54.687500
4922,-54.687500
4923,-54.687500
4924,-54.687500
4925,-54.687500
4926,-54.687500
4927,-54.687500
4928,-54.687500
4929,-50.781250
4930,-50.781250
4931,-50.781250
4932,-50.781250
4933,-50.781250
4934,-50.781250
4935,-50.781250
4936,-50.781250
4937,-50.781250
4938,-50.781250
4939,-46.875000
4940,-46.875000
4941,-46.875000
4942,-46.875000
4943,-46.875000
4944,-46.875000
4945,-46.875000
4946,-46.875000
4947,-46.875000
4948,-46.875000
4949,-46.875000
4950,-42.968750
4951,-42.968750
4952,-42.968750
4953,-42.968750
4954,-42.968750
4955,-42.968750
4956,-42.968750
4957,-42.968750
4958,-42.968750
4959,-39.062500
4960,-39.062500
4961,-39.062500
4962,-39.062500
4963,-39.062500
4964,-39.062500
4965,-39.062500
4966,-39.062500
4967,-39.062500
4968,-35.156250
4969,-35.156250
4970,-35.156250
4971,-35.156250
4972,-35.156250
4973,-35.156250
4974,-35.156250
4975,-31.250000
4976,-31.250000
4977,-31.250000
4978,-31.250000
4979,-31.250000
4980,-31.250000
4981,-31.250000
4982,-31.250000
4983,-31.250000
4984,-27.343750
4985,-27.343750
4986,-27.343750
4987,-27.343750
4988,-27.343750
4989,-27.343750
4990,-27.343750
4991,-23.437500
4992,-23.437500
4993,-23.437500
4994,-23.437500
4995,-23.437500
4996,-23.437500
4997,-23.437500
4998,-23.437500
4999,-23.437500
5000,-19.531250
5001,-19.531250
5002,-19.531250
5003,-19.531250
5004,-19.531250
5005,-19.531250
5006,-19.531250
5007,-19.531250
5008,-15.625000
5009,-15.625000
5010,-15.625000
5011,-15.625000
5012,-15.625000
5013,-15.625000
5014,-15.625000
5015,-15.625000
5016,-11.718750
5017,-11.718750
5018,-15.625000
5019,-11.718750
5020,-11.718750
5021,-11.718750
5022,-11.718750
5023,-11.718750
5024,-11.718750
5025,-11.718750
5026,-11.718750
5027,-7.812500
5028,-7.812500
5029,-7.812500
5030,-7.812500
5031,-7.812500
5032,-7.812500
5033,-7.812500
5034,-7.812500
5035,-3.906250
5036,-3.906250
5037,-3.906250
5038,-3.906250
5039,-3.906250
5040,-3.906250
5041,-3.906250
5042,-3.906250
5043,-3.906250
5044,-3.906250
5045,0.000000
5046,0.000000
5047,0.000000
5048,0.000000
5049,0.000000
5050,0.000000
5051,0.000000
5052,0.000000
5053,3.906250
5054,3.906250
5055,3.906250
5056,3.906250
5057,3.906250
5058,3.906250
5059,3.906250
5060,3.906250
5061,7.812500
5062,7.812500
5063,7.812500
5064,7.812500
5065,7.812500
5066,7.812500
5067,7.812500
5068,7.812500
5069,7.812500
5070,11.718750
5071,11.718750
5072,11.718750
5073,11.718750
5074,11.718750
5075,11.718750
5076,11.718750
5077,11.718750
5078,15.625000
5079,15.625000
5080,15.625000
5081,15.625000
5082,15.625000
5083,15.625000
5084,15.625000
5085,15.625000
5086,15.625000
5087,19.531250
5088,19.531250
5089,19.531250
5090,19.531250
5091,19.531250
5092,19.531250
5093,19.531250
5094,19.531250
5095,19.531250
5096,19.531250
5097,23.437500
5098,23.437500
5099,23.437500
5100,23.437500
5101,23.437500
5102,23.437500
5103,23.437500
5104,23.437500
5105,23.437500
5106,23.437500
5107,23.437500
5108,27.343750
5109,27.343750
5110,27.343750
5111,27.343750
5112,27.343750
5113,27.343750
5114,27.343750
5115,27.343750
5116,27.343750
5117,27.343750
5118,27.343750
5119,31.250000
5120,31.250000
5121,31.250000
5122,31.250000
5123,31.250000
5124,31.250000
5125,31.250000
5126,31.250000
5127,31.250000
5128,31.250000
5129,31.250000
5130,35.156250
5131,35.156250
5132,35.156250
5133,35.156250
5134,35.156250
5135,35.156250
5136,35.156250
5137,35.156250
5138,35.156250
5139,35.156250
5140,35.156250
5141,39.062500
5142,39.062500
5143,39.062500
5144,39.062500
5145,39.062500
5146,39.062500
5147,39.062500
5148,39.062500
5149,39.062500
5150,39.062500
5151,39.062500
5152,39.062500
5153,39.062500
5154,39.062500
5155,42.968750
5156,42.968750
5157,42.968750
5158,42.968750
5159,42.968750
5160,42.968750
5161,42.968750
5162,42.968750
5163,42.968750
5164,42.968750
5165,42.968750
5166,42.968750
5167,42.968750
5168,42.968750
5169,46.875000
5170,46.875000
5171,46.875000
5172,46.875000
5173,46.875000
5174,46.875000
5175,46.875000
5176,46.875000
5177,46.875000
5178,46.875000
5179,46.875000
5180,46.875000
5181,46.875000
5182,46.875000
5183,46.875000
5184,46.875000
5185,46.875000
5186,50.781250
5187,50.781250
5188,50.781250
5189,50.781250
5190,50.781250
5191,50.781250
5192,50.781250
5193,50.781250
5194,50.781250
5195,50.781250
5196,50.781250
5197,50.781250
5198,50.781250
5199,50.781250
5200,50.781250
5201,50.781250
5202,50.781250
5203,50.781250
5204,50.781250
5205,50.781250
5206,50.781250
5207,54.687500
5208,54.687500
5209,54.687500
5210,54.687500
5211,54.687500
5212,54.687500
5213,54.687500
5214,54.687500
5215,54.687500
5216,54.687500
5217,54.687500
5218,54.687500
5219,54.687500
5220,54.687500
5221,54.687500
5222,54.687500
5223,54.687500
5224,54.687500
5225,54.687500
5226,54.687500
5227,54.687500
5228,54.687500
5229,54.687500
5230,54.687500
5231,54.687500
5232,58.593750
5233,58.593750
5234,54.687500
5235,54.687500
5236,54.687500
5237,58.593750
5238,54.687500
5239,58.593750
5240,58.593750
5241,58.593750
5242,58.593750
5243,58.593750
5244,58.593750
5245,58.593750
5246,58.593750
5247,58.593750
5248,58.593750
5249,58.593750
5250,58.593750
5251,58.593750
5252,58.593750
5253,58.593750
5254,58.593750
5255,58.593750
5256,58.593750
5257,58.593750
5258,58.593750
5259,58.593750
5260,58.593750
5261,58.593750
5262,58.593750
5263,58.593750
5264,58.593750
5265,58.593750
5266,58.593750
5267,58.593750
5268,58.593750
5269,58.593750
5270,58.593750
5271,58.593750
5272,58.593750
5273,58.593750
5274,58.593750
5275,58.593750
5276,58.593750
5277,58.593750
5278,58.593750
5279,58.593750
5280,58.593750
5281,58.593750
5282,58.593750
5283,58.593750
5284,58.593750
5285,58.593750
5286,58.593750
5287,58.593750
5288,58.593750
5289,58.593750
5290,58.593750
5291,58.593750
5292,58.593750
5293,58.593750
5294,58.593750
5295,58.593750
5296,58.593750
5297,54.687500
5298,58.593750
5299,58.593750
5300,58.593750
5301,54.687500
5302,54.687500
5303,54.687500
5304,54.687500
5305,54.687500
5306,58.593750
5307,54.687500
5308,54.687500
5309,54.687500
5310,54.687500
5311,54.687500
5312,54.687500
5313,54.687500
5314,54.687500
5315,54.687500
5316,54.687500
5317,54.687500
5318,54.687500
5319,54.687500
5320,54.687500
5321,54.687500
5322,54.687500
5323,54.687500
5324,54.687500
5325,54.687500
5326,54.687500
5327,54.687500
5328,54.687500
5329,54.687500
5330,54.687500
5331,50.781250
5332,54.687500
5333,54.687500
5334,50.781250
5335,54.687500
5336,50.781250
5337,54.687500
5338,54.687500
5339,54.687500
5340,50.781250
5341,50.781250
5342,50.781250
5343,50.781250
5344,50.781250
5345,50.781250
5346,50.781250
5347,50.781250
5348,50.781250
5349,50.781250
5350,50.781250
5351,50.781250
5352,50.781250
5353,50.781250
5354,50.781250
5355,50.781250
5356,46.875000
5357,50.781250
5358,46.875000
5359,50.781250
5360,46.875000
5361,46.875000
5362,46.875000
5363,46.875000
5364,46.875000
5365,46.875000
5366,46.875000
5367,46.875000
5368,46.875000
5369,46.875000
5370,46.875000
5371,46.875000
5372,46.875000
5373,46.875000
5374,42.968750
5375,42.968750
5376,42.968750
5377,42.968750
5378,42.968750
5379,42.968750
5380,42.968750
5381,42.968750
5382,42.968750
5383,42.968750
5384,42.968750
5385,42.968750
5386,42.968750
5387,42.968750
5388,42.968750
5389,39.062500
5390,42.968750
5391,39.062500
5392,39.062500
5393,39.062500
5394,39.062500
5395,39.062500
5396,39.062500
5397,39.062500
5398,39.062500
5399,39.062500
5400,35.156250
5401,39.062500
5402,35.156250
5403,35.156250
5404,35.156250
5405,35.156250
5406,35.156250
5407,35.156250
5408,35.156250
5409,35.156250
5410,35.156250
5411,35.156250
5412,35.156250
5413,35.156250
5414,31.250000
5415,35.156250
5416,31.250000
5417,31.250000
5418,31.250000
5419,31.250000
5420,31.250000
5421,31.250000
5422,31.250000
5423,31.250000
5424,27.343750
5425,31.250000
5426,27.343750
5427,27.343750
5428,27.343750
5429,27.343750
5430,27.343750
5431,27.343750
5432,27.343750
5433,27.343750
5434,27.343750
5435,27.343750
5436,23.437500
5437,23.437500
5438,23.437500
5439,23.437500
5440,23.437500
5441,23.437500
5442,23.437500
5443,23.437500
5444,23.437500
5445,23.437500
5446,23.437500
5447,23.437500
5448,19.531250
5449,19.531250
5450,19.531250
5451,19.531250
5452,19.531250
5453,19.531250
5454,19.531250
5455,19.531250
5456,15.625000
5457,15.625000
5458,15.625000
5459,15.625000
5460,15.625000
5461,15.625000
5462,15.625000
5463,15.625000
5464,15.625000
5465,11.718750
5466,15.625000
5467,11.718750
5468,11.718750
5469,11.718750
5470,11.718750
5471,11.718750
5472,11.718750
5473,11.718750
5474,11.718750
5475,11.718750
5476,7.812500
5477,7.812500
5478,7.812500
5479,7.812500
5480,7.812500
5481,7.812500
5482,7.812500
5483,3.906250
5484,3.906250
5485,3.906250
5486,3.906250
5487,3.906250
5488,3.906250
5489,3.906250
5490,3.906250
5491,3.906250
5492,3.906250
5493,3.906250
5494,0.000000
5495,0.000000
5496,0.000000
5497,0.000000
5498,0.000000
5499,0.000000
5500,0.000000
5501,0.000000
5502,-3.906250
5503,-3.906250
5504,-3.906250
5505,-3.906250
5506,-3.906250
5507,-3.906250
5508,-3.906250
5509,-7.812500
5510,-7.812500
5511,-7.812500
5512,-7.812500
5513,-7.812500
5514,-7.812500
5515,-7.812500
5516,-7.812500
5517,-7.812500
5518,-11.718750
5519,-11.718750
5520,-11.718750
5521,-11.718750
5522,-11.718750
5523,-11.718750
5524,-11.718750
5525,-11.718750
5526,-11.718750
5527,-15.625000
5528,-15.625000
5529,-15.625000
5530,-15.625000
5531,-15.625000
5532,-15.625000
5533,-15.625000
5534,-15.625000
5535,-19.531250
5536,-19.531250
5537,-19.531250
5538,-19.531250
5539,-19.531250
5540,-19.531250
5541,-19.531250
5542,-19.531250
5543,-23.437500
5544,-23.437500
5545,-23.437500
5546,-23.437500
5547,-23.437500
5548,-23.437500
5549,-23.437500
5550,-23.437500
5551,-23.437500
5552,-23.437500
5553,-23.437500
5554,-27.343750
5555,-27.343750
5556,-27.343750
5557,-27.343750
5558,-27.343750
5559,-27.343750
5560,-27.343750
5561,-31.250000
5562,-31.250000
5563,-31.250000
5564,-31.250000
5565,-31.250000
5566,-31.250000
5567,-31.250000
5568,-31.250000
5569,-35.156250
5570,-35.156250
5571,-35.156250
5572,-35.156250
5573,-35.156250
5574,-35.156250
5575,-35.156250
5576,-35.156250
5577,-39.062500
5578,-35.156250
5579,-39.062500
5580,-39.062500
5581,-39.062500
5582,-39.062500
5583,-39.062500
5584,-39.062500
5585,-39.062500
5586,-42.968750
5587,-39.062500
5588,-42.968750
5589,-42.968750
5590,-42.968750
5591,-42.968750
5592,-42.968750
5593,-42.968750
5594,-42.968750
5595,-46.875000
5596,-46.875000
5597,-46.875000
5598,-46.875000
5599,-46.875000
5600,-46.875000
5601,-46.875000
5602,-46.875000
5603,-46.875000
5604,-50.781250
5605,-46.875000
5606,-50.781250
5607,-50.781250
5608,-50.781250
5609,-50.781250
5610,-50.781250
5611,-50.781250
5612,-50.781250
5613,-50.781250
5614,-50.781250
5615,-54.687500
5616,-54.687500
5617,-54.687500
5618,-54.687500
5619,-54.687500
5620,-54.687500
5621,-54.687500
5622,-54.687500
5623,-54.687500
5624,-58.593750
5625,-58.593750
5626,-58.593750
5627,-58.593750
5628,-58.593750
5629,-58.593750
5630,-58.593750
5631,-58.593750
5632,-58.593750
5633,-58.593750
5634,-58.593750
5635,-62.500000
5636,-62.500000
5637,-62.500000
5638,-62.500000
5639,-62.500000
5640,-62.500000
5641,-62.500000
5642,-62.500000
5643,-62.500000
5644,-66.406250
5645,-66.406250
5646,-66.406250
5647,-66.406250
5648,-66.406250
5649,-66.406250
5650,-66.406250
5651,-66.406250
5652,-66.406250
5653,-66.406250
5654,-66.406250
5655,-66.406250
5656,-66.406250
5657,-70.312500
5658,-70.312500
5659,-70.312500
5660,-70.312500
5661,-70.312500
5662,-70.312500
5663,-70.312500
5664,-70.312500
5665,-70.312500
5666,-70.312500
5667,-70.312500
5668,-70.312500
5669,-74.218750
5670,-74.218750
5671,-74.218750
5672,-74.218750
5673,-74.218750
5674,-74.218750
5675,-74.218750
5676,-74.218750
5677,-74.218750
5678,-74.218750
5679,-74.218750
5680,-74.218750
5681,-74.218750
5682,-78.125000
5683,-74.218750
5684,-78.125000
5685,-78.125000
5686,-78.125000
5687,-74.218750
5688,-78.125000
5689,-78.125000
5690,-78.125000
5691,-78.125000
5692,-78.125000
5693,-78.125000
5694,-78.125000
5695,-78.125000
5696,-78.125000
5697,-78.125000
5698,-78.125000
5699,-78.125000
5700,-82.031250
5701,-82.031250
5702,-82.031250
5703,-82.031250
5704,-82.031250
5705,-82.031250
5706,-82.031250
5707,-82.031250
5708,-82.031250
5709,-82.031250
5710,-82.031250
5711,-82.031250
5712,-82.031250
5713,-82.031250
5714,-82.031250
5715,-82.031250
5716,-82.031250
5717,-82.031250
5718,-82.031250
5719,-82.031250
5720,-82.031250
5721,-85.937500
5722,-85.937500
5723,-85.937500
5724,-82.031250
5725,-82.031250
5726,-82.031250
5727,-85.937500
5728,-85.937500
5729,-85.937500
5730,-85.937500
5731,-85.937500
5732,-85.937500
5733,-85.937500
5734,-85.937500
5735,-85.937500
5736,-85.937500
5737,-85.937500
5738,-85.937500
5739,-85.937500
5740,-85.937500
5741,-85.937500
5742,-85.937500
5743,-85.937500
5744,-85.937500
5745,-85.937500
5746,-85.937500
5747,-85.937500
5748,-85.937500
5749,-85.937500
5750,-85.937500
5751,-85.937500
5752,-85.937500
5753,-85.937500
5754,-85.937500
5755,-85.937500
5756,-85.937500
5757,-85.937500
5758,-85.937500
5759,-85.937500
5760,-89.843750
5761,-89.843750
5762,-89.843750
5763,-89.843750
5764,-89.843750
5765,-85.937500
5766,-85.937500
5767,-85.937500
5768,-85.937500
5769,-85.937500
5770,-89.843750
5771,-85.937500
5772,-89.843750
5773,-85.937500
5774,-85.937500
5775,-85.937500
5776,-85.937500
5777,-85.937500
5778,-85.937500
5779,-85.937500
5780,-85.937500
5781,-85.937500
5782,-85.937500
5783,-85.937500
5784,-85.937500
5785,-85.937500
5786,-85.937500
5787,-85.937500
5788,-85.937500
5789,-85.937500
5790,-85.937500
5791,-85.937500
5792,-85.937500
5793,-85.937500
5794,-85.937500
5795,-85.937500
5796,-85.937500
5797,-85.937500
5798,-85.937500
5799,-85.937500
5800,-85.937500
5801,-85.937500
5802,-85.937500
5803,-85.937500
5804,-85.937500
5805,-85.937500
5806,-85.937500
5807,-85.937500
5808,-85.937500
5809,-85.937500
5810,-85.937500
5811,-85.937500
5812,-85.937500
5813,-85.937500
5814,-82.031250
5815,-85.937500
5816,-85.937500
5817,-82.031250
5818,-82.031250
5819,-85.937500
5820,-82.031250
5821,-82.031250
5822,-82.031250
5823,-82.031250
5824,-82.031250
5825,-82.031250
5826,-82.031250
5827,-82.031250
5828,-82.031250
5829,-82.031250
5830,-82.031250
5831,-82.031250
5832,-82.031250
5833,-82.031250
5834,-82.031250
5835,-82.031250
5836,-82.031250
5837,-78.125000
5838,-78.125000
5839,-78.125000
5840,-78.125000
5841,-78.125000
5842,-78.125000
5843,-78.125000
5844,-78.125000
5845,-78.125000
5846,-78.125000
5847,-78.125000
5848,-78.125000
5849,-78.125000
5850,-78.125000
5851,-78.125000
5852,-74.218750
5853,-74.218750
5854,-74.218750
5855,-74.218750
5856,-74.218750
5857,-74.218750
5858,-74.218750
5859,-74.218750
5860,-74.218750
5861,-74.218750
5862,-74.218750
5863,-74.218750
5864,-74.218750
5865,-74.218750
5866,-74.218750
5867,-70.312500
5868,-70.312500
5869,-70.312500
5870,-70.312500
5871,-70.312500
5872,-70.312500
5873,-70.312500
5874,-70.312500
5875,-70.312500
5876,-70.312500
5877,-70.312500
5878,-70.312500
5879,-66.406250
5880,-66.406250
5881,-66.406250
5882,-66.406250
5883,-66.406250
5884,-66.406250
5885,-66.406250
5886,-66.406250
5887,-66.406250
5888,-66.406250
5889,-66.406250
5890,-62.500000
5891,-62.500000
5892,-62.500000
5893,-62.500000
5894,-62.500000
5895,-62.500000
5896,-62.500000
5897,-62.500000
5898,-62.500000
5899,-62.500000
5900,-62.500000
5901,-58.593750
5902,-58.593750
5903,-58.593750
5904,-58.593750
5905,-58.593750
5906,-58.593750
5907,-58.593750
5908,-58.593750
5909,-58.593750
5910,-54.687500
5911,-58.593750
5912,-58.593750
5913,-58.593750
5914,-54.687500
5915,-54.687500
5916,-54.687500
5917,-54.687500
5918,-54.687500
5919,-54.687500
5920,-54.687500
5921,-50.781250
5922,-50.781250
5923,-50.781250
5924,-50.781250
5925,-50.781250
5926,-50.781250
5927,-50.781250
5928,-50.781250
5929,-50.781250
5930,-50.781250
5931,-46.875000
5932,-46.875000
5933,-46.875000
5934,-46.875000
5935,-46.875000
5936,-46.875000
5937,-46.875000
5938,-46.875000
5939,-46.875000
5940,-42.968750
5941,-42.968750
5942,-42.968750
5943,-42.968750
5944,-42.968750
5945,-42.968750
5946,-42.968750
5947,-42.968750
5948,-42.968750
5949,-39.062500
5950,-39.062500
5951,-39.062500
5952,-39.062500
5953,-39.062500
5954,-39.062500
5955,-39.062500
5956,-39.062500
5957,-39.062500
5958,-35.156250
5959,-35.156250
5960,-35.156250
5961,-35.156250
5962,-35.156250
5963,-35.156250
5964,-35.156250
5965,-31.250000
5966,-31.250000
5967,-31.250000
5968,-31.250000
5969,-31.250000
5970,-31.250000
5971,-31.250000
5972,-31.250000
5973,-31.250000
5974,-27.343750
5975,-27.343750
5976,-27.343750
5977,-27.343750
5978,-27.343750
5979,-27.343750
5980,-27.343750
5981,-27.343750
5982,-23.437500
5983,-27.343750
5984,-23.437500
5985,-23.437500
5986,-23.437500
5987,-23.437500
5988,-23.437500
5989,-23.437500
5990,-23.437500
5991,-23.437500
5992,-19.531250
5993,-19.531250
5994,-19.531250
5995,-19.531250
5996,-19.531250
5997,-19.531250
5998,-19.531250
5999,-15.625000
6000,-15.625000
6001,-15.625000
6002,-15.625000
6003,-15.625000
6004,-15.625000
6005,-15.625000
6006,-15.625000
6007,-15.625000
6008,-15.625000
6009,-11.718750
6010,-11.718750
6011,-11.718750
6012,-11.718750
6013,-7.812500
6014,-7.812500
6015,-7.812500
6016,-7.812500
6017,-11.718750
6018,-7.812500
6019,-7.812500
6020,-7.812500
6021,-7.812500
6022,-7.812500
6023,-7.812500
6024,-7.812500
6025,-3.906250
6026,-3.906250
6027,-3.906250
6028,-3.906250
6029,-3.906250
6030,-3.906250
6031,-3.906250
6032,-3.906250
6033,0.000000
6034,0.000000
6035,0.000000
6036,0.000000
6037,0.000000
6038,0.000000
6039,0.000000
6040,0.000000
6041,3.906250
6042,3.906250
6043,3.906250
6044,3.906250
6045,3.906250
6046,3.906250
6047,3.906250
6048,3.906250
6049,3.906250
6050,7.812500
6051,7.812500
6052,7.812500
6053,7.812500
6054,7.812500
6055,7.812500
6056,7.812500
6057,7.812500
6058,7.812500
6059,11.718750
6060,11.718750
6061,11.718750
6062,11.718750
6063,11.718750
6064,11.718750
6065,11.718750
6066,11.718750
6067,11.718750
6068,15.625000
6069,15.625000
6070,15.625000
6071,15.625000
6072,15.625000
6073,15.625000
6074,15.625000
6075,11.718750
6076,15.625000
6077,19.531250
6078,19.531250
6079,19.531250
6080,19.531250
6081,19.531250
6082,19.531250
6083,19.531250
6084,19.531250
6085,19.531250
6086,19.531250
6087,27.343750
6088,23.437500
6089,23.437500
6090,23.437500
6091,23.437500
6092,23.437500
6093,23.437500
6094,23.437500
6095,23.437500
6096,23.437500
6097,23.437500
6098,23.437500
6099,27.343750
6100,27.343750
6101,27.343750
6102,27.343750
6103,27.343750
6104,27.343750
6105,27.343750
6106,27.343750
6107,27.343750
6108,31.250000
6109,31.250000
6110,31.250000
6111,31.250000
6112,31.250000
6113,31.250000
6114,31.250000
6115,31.250000
6116,31.250000
6117,31.250000
6118,31.250000
6119,31.250000
6120,35.156250
6121,31.250000
6122,35.156250
6123,35.156250
6124,35.156250
6125,35.156250
6126,35.156250
6127,39.062500
6128,35.156250
6129,35.156250
6130,39.062500
6131,35.156250
6132,39.062500
6133,39.062500
6134,39.062500
6135,39.062500
6136,39.062500
6137,39.062500
6138,39.062500
6139,39.062500
6140,39.062500
6141,39.062500
6142,42.968750
6143,42.968750
6144,42.968750
6145,42.968750
6146,42.968750
6147,42.968750
6148,42.968750
6149,42.968750
6150,42.968750
6151,42.968750
6152,42.968750
6153,42.968750
6154,42.968750
6155,46.875000
6156,42.968750
6157,42.968750
6158,42.968750
6159,42.968750
6160,46.875000
6161,46.875000
6162,46.875000
6163,46.875000
6164,46.875000
6165,46.875000
6166,46.875000
6167,46.875000
6168,46.875000
6169,46.875000
6170,46.875000
6171,46.875000
6172,46.875000
6173,46.875000
6174,46.875000
6175,46.875000
6176,50.781250
6177,46.875000
6178,46.875000
6179,50.781250
6180,50.781250
6181,50.781250
6182,50.781250
6183,50.781250
6184,50.781250
6185,50.781250
6186,50.781250
6187,50.781250
6188,50.781250
6189,50.781250
6190,50.781250
6191,50.781250
6192,50.781250
6193,50.781250
6194,50.781250
6195,54.687500
6196,50.781250
6197,50.781250
6198,54.687500
6199,54.687500
6200,54.687500
6201,54.687500
6202,54.687500
6203,54.687500
6204,54.687500
6205,54.687500
6206,54.687500
6207,54.687500
6208,54.687500
6209,54.687500
6210,54.687500
6211,54.687500
6212,54.687500
6213,54.687500
6214,54.687500
6215,54.687500
6216,54.687500
6217,54.687500
6218,54.687500
6219,54.687500
6220,54.687500
6221,54.687500
6222,54.687500
6223,58.593750
6224,58.593750
6225,54.687500
6226,58.593750
6227,54.687500
6228,58.593750
6229,58.593750
6230,58.593750
6231,58.593750
6232,58.593750
6233,58.593750
6234,58.593750
6235,58.593750
6236,58.593750
6237,58.593750
6238,58.593750
6239,58.593750
6240,58.593750
6241,58.593750
6242,58.593750
6243,58.593750
6244,58.593750
6245,58.593750
6246,58.593750
6247,58.593750
6248,58.593750
6249,58.593750
6250,58.593750
6251,58.593750
6252,58.593750
6253,58.593750
6254,58.593750
6255,58.593750
6256,58.593750
6257,58.593750
6258,58.593750
6259,58.593750
6260,58.593750
6261,58.593750
6262,58.593750
6263,58.593750
6264,58.593750
6265,58.593750
6266,58.593750
6267,58.593750
6268,58.593750
6269,58.593750
6270,58.593750
6271,58.593750
6272,58.593750
6273,58.593750
6274,58.593750
6275,58.593750
6276,58.593750
6277,58.593750
6278,58.593750
6279,58.593750
6280,58.593750
6281,58.593750
6282,58.593750
6283,58.593750
6284,58.593750
6285,58.593750
6286,58.593750
6287,58.593750
6288,58.593750
6289,58.593750
6290,58.593750
6291,58.593750
6292,58.593750
6293,58.593750
6294,58.593750
6295,58.593750
6296,54.687500
6297,54.687500
6298,54.687500
6299,54.687500
6300,54.687500
6301,54.687500
6302,54.687500
6303,54.687500
6304,54.687500
6305,54.687500
6306,54.687500
6307,54.687500
6308,54.687500
6309,54.687500
6310,54.687500
6311,54.687500
6312,54.687500
6313,54.687500
6314,54.687500
6315,54.687500
6316,54.687500
6317,54.687500
6318,54.687500
6319,54.687500
6320,54.687500
6321,54.687500
6322,54.687500
6323,54.687500
6324,54.687500
6325,50.781250
6326,54.687500
6327,50.781250
6328,50.781250
6329,50.781250
6330,50.781250
6331,50.781250
6332,50.781250
6333,50.781250
6334,50.781250
6335,50.781250
6336,50.781250
6337,50.781250
6338,50.781250
6339,50.781250
6340,50.781250
6341,50.781250
6342,50.781250
6343,50.781250
6344,50.781250
6345,50.781250
6346,50.781250
6347,50.781250
6348,50.781250
6349,50.781250
6350,50.781250
6351,46.875000
6352,46.875000
6353,46.875000
6354,46.875000
6355,46.875000
6356,46.875000
6357,46.875000
6358,46.875000
6359,46.875000
6360,46.875000
6361,46.875000
6362,46.875000
6363,46.875000
6364,42.968750
6365,46.875000
6366,42.968750
6367,42.968750
6368,42.968750
6369,42.968750
6370,42.968750
6371,42.968750
6372,42.968750
6373,42.968750
6374,42.968750
6375,42.968750
6376,42.968750
6377,42.968750
6378,42.968750
6379,39.062500
6380,42.968750
6381,39.062500
6382,39.062500
6383,39.062500
6384,39.062500
6385,39.062500
6386,39.062500
6387,39.062500
6388,39.062500
6389,39.062500
6390,39.062500
6391,39.062500
6392,35.156250
6393,39.062500
6394,35.156250
6395,35.156250
6396,35.156250
6397,35.156250
6398,35.156250
6399,35.156250
6400,35.156250
6401,35.156250
6402,35.156250
6403,35.156250
6404,35.156250
6405,31.250000
6406,31.250000
6407,31.250000
6408,31.250000
6409,31.250000
6410,31.250000
6411,31.250000
6412,31.250000
6413,31.250000
6414,31.250000
6415,31.250000
6416,27.343750
6417,27.343750
6418,27.343750
6419,27.343750
6420,27.343750
6421,27.343750
6422,27.343750
6423,27.343750
6424,27.343750
6425,27.343750
6426,27.343750
6427,23.437500
6428,23.437500
6429,23.437500
6430,23.437500
6431,23.437500
6432,23.437500
6433,23.437500
6434,23.437500
6435,23.437500
6436,23.437500
6437,19.531250
6438,19.531250
6439,19.531250
6440,19.531250
6441,19.531250
6442,19.531250
6443,19.531250
6444,19.531250
6445,19.531250
6446,19.531250
6447,15.625000
6448,15.625000
6449,15.625000
6450,15.625000
6451,15.625000
6452,15.625000
6453,15.625000
6454,15.625000
6455,15.625000
6456,11.718750
6457,11.718750
6458,11.718750
6459,11.718750
6460,11.718750
6461,11.718750
6462,11.718750
6463,11.718750
6464,11.718750
6465,7.812500
6466,7.812500
6467,7.812500
6468,7.812500
6469,7.812500
6470,7.812500
6471,7.812500
6472,7.812500
6473,7.812500
6474,7.812500
6475,3.906250
6476,3.906250
6477,3.906250
6478,3.906250
6479,3.906250
6480,3.906250
6481,3.906250
6482,0.000000
6483,0.000000
6484,0.000000
6485,0.000000
6486,0.000000
6487,0.000000
6488,0.000000
6489,0.000000
6490,0.000000
6491,0.000000
6492,-3.906250
6493,-3.906250
6494,-3.906250
6495,-3.906250
6496,-3.906250
6497,-3.906250
6498,-3.906250
6499,-3.906250
6500,-3.906250
6501,-7.812500
6502,-7.812500
6503,-7.812500
6504,-7.812500
6505,-7.812500
6506,-7.812500
6507,-7.812500
6508,-7.812500
6509,-7.812500
6510,-11.718750
6511,-11.718750
6512,-11.718750
6513,-11.718750
6514,-11.718750
6515,-11.718750
6516,-11.718750
6517,-11.718750
6518,-15.625000
6519,-15.625000
6520,-15.625000
6521,-15.625000
6522,-15.625000
6523,-15.625000
6524,-15.625000
6525,-19.531250
6526,-19.531250
6527,-19.531250
6528,-19.531250
6529,-19.531250
6530,-19.531250
6531,-19.531250
6532,-19.531250
6533,-23.437500
6534,-19.531250
6535,-23.437500
6536,-23.437500
6537,-23.437500
6538,-23.437500
6539,-23.437500
6540,-27.343750
6541,-27.343750
6542,-27.343750
6543,-27.343750
6544,-27.343750
6545,-27.343750
6546,-27.343750
6547,-27.343750
6548,-27.343750
6549,-31.250000
6550,-31.250000
6551,-31.250000
6552,-31.250000
6553,-31.250000
6554,-31.250000
6555,-31.250000
6556,-31.250000
6557,-35.156250
6558,-31.250000
6559,-31.250000
6560,-35.156250
6561,-35.156250
6562,-35.156250
6563,-35.156250
6564,-35.156250
6565,-35.156250
6566,-39.062500
6567,-35.156250
6568,-39.062500
6569,-39.062500
6570,-39.062500
6571,-39.062500
6572,-39.062500
6573,-39.062500
6574,-39.062500
6575,-39.062500
6576,-39.062500
6577,-42.968750
6578,-42.968750
6579,-42.968750
6580,-42.968750
6581,-42.968750
6582,-42.968750
6583,-42.968750
6584,-42.968750
6585,-42.968750
6586,-46.875000
6587,-46.875000
6588,-46.875000
6589,-46.875000
6590,-46.875000
6591,-46.875000
6592,-46.875000
6593,-46.875000
6594,-50.781250
6595,-50.781250
6596,-50.781250
6597,-50.781250
6598,-50.781250
6599,-50.781250
6600,-50.781250
6601,-50.781250
6602,-54.687500
6603,-54.687500
6604,-54.687500
6605,-54.687500
6606,-54.687500
6607,-54.687500
6608,-54.687500
6609,-54.687500
6610,-54.687500
6611,-54.687500
6612,-58.593750
6613,-58.593750
6614,-58.593750
6615,-58.593750
6616,-58.593750
6617,-58.593750
6618,-58.593750
6619,-58.593750
6620,-58.593750
6621,-58.593750
6622,-58.593750
6623,-58.593750
6624,-62.500000
6625,-58.593750
6626,-62.500000
6627,-62.500000
6628,-62.500000
6629,-62.500000
6630,-62.500000
6631,-62.500000
6632,-62.500000
6633,-66.406250
6634,-66.406250
6635,-66.406250
6636,-66.406250
6637,-66.406250
6638,-66.406250
6639,-66.406250
6640,-66.406250
6641,-66.406250
6642,-66.406250
6643,-70.312500
6644,-66.406250
6645,-70.312500
6646,-70.312500
6647,-70.312500
6648,-70.312500
6649,-70.312500
6650,-70.312500
6651,-70.312500
6652,-70.312500
6653,-70.312500
6654,-70.312500
6655,-70.312500
6656,-70.312500
6657,-70.312500
6658,-70.312500
6659,-74.218750
6660,-74.218750
6661,-74.218750
6662,-74.218750
6663,-74.218750
6664,-74.218750
6665,-74.218750
6666,-74.218750
6667,-74.218750
6668,-74.218750
6669,-74.218750
6670,-78.125000
6671,-74.218750
6672,-78.125000
6673,-78.125000
6674,-78.125000
6675,-78.125000
6676,-78.125000
6677,-78.125000
6678,-78.125000
6679,-78.125000
6680,-78.125000
6681,-78.125000
6682,-78.125000
6683,-78.125000
6684,-78.125000
6685,-78.125000
6686,-78.125000
6687,-82.031250
6688,-78.125000
6689,-82.031250
6690,-82.031250
6691,-82.031250
6692,-82.031250
6693,-82.031250
6694,-82.031250
6695,-82.031250
6696,-82.031250
6697,-82.031250
6698,-82.031250
6699,-82.031250
6700,-82.031250
6701,-82.031250
6702,-82.031250
6703,-82.031250
6704,-82.031250
6705,-85.937500
6706,-82.031250
6707,-82.031250
6708,-85.937500
6709,-85.937500
6710,-85.937500
6711,-85.937500
6712,-85.937500
6713,-85.937500
6714,-85.937500
6715,-85.937500
6716,-85.937500
6717,-85.937500
6718,-85.937500
6719,-85.937500
6720,-85.937500
6721,-85.937500
6722,-85.937500
6723,-85.937500
6724,-85.937500
6725,-85.937500
6726,-85.937500
6727,-85.937500
6728,-85.937500
6729,-85.937500
6730,-85.937500
6731,-85.937500
6732,-85.937500
6733,-85.937500
6734,-85.937500
6735,-85.937500
6736,-85.937500
6737,-85.937500
6738,-85.937500
6739,-85.937500
6740,-89.843750
6741,-85.937500
6742,-89.843750
6743,-85.937500
6744,-89.843750
6745,-89.843750
6746,-85.937500
6747,-85.937500
6748,-89.843750
6749,-89.843750
6750,-89.843750
6751,-89.843750
6752,-85.937500
6753,-85.937500
6754,-85.937500
6755,-85.937500
6756,-89.843750
6757,-85.937500
6758,-85.937500
6759,-89.843750
6760,-89.843750
6761,-89.843750
6762,-85.937500
6763,-85.937500
6764,-89.843750
6765,-85.937500
6766,-89.843750
6767,-85.937500
6768,-89.843750
6769,-85.937500
6770,-85.937500
6771,-85.937500
6772,-89.843750
6773,-85.937500
6774,-85.937500
6775,-85.937500
6776,-85.937500
6777,-85.937500
6778,-85.937500
6779,-85.937500
6780,-85.937500
6781,-85.937500
6782,-85.937500
6783,-85.937500
6784,-85.937500
6785,-85.937500
6786,-85.937500
6787,-85.937500
6788,-85.937500
6789,-85.937500
6790,-85.937500
6791,-85.937500
6792,-85.937500
6793,-85.937500
6794,-85.937500
6795,-85.937500
6796,-85.937500
6797,-85.937500
6798,-85.937500
6799,-85.937500
6800,-85.937500
6801,-85.937500
6802,-85.937500
6803,-85.937500
6804,-85.937500
6805,-85.937500
6806,-85.937500
6807,-82.031250
6808,-82.031250
6809,-82.031250
6810,-82.031250
6811,-82.031250
6812,-82.031250
6813,-82.031250
6814,-82.031250
6815,-82.031250
6816,-82.031250
6817,-82.031250
6818,-82.031250
6819,-82.031250
6820,-82.031250
6821,-82.031250
6822,-82.031250
6823,-82.031250
6824,-82.031250
6825,-82.031250
6826,-82.031250
6827,-82.031250
6828,-82.031250
6829,-78.125000
6830,-78.125000
6831,-78.125000
6832,-78.125000
6833,-78.125000
6834,-78.125000
6835,-78.125000
6836,-78.125000
6837,-78.125000
6838,-78.125000
6839,-78.125000
6840,-78.125000
6841,-78.125000
6842,-78.125000
6843,-78.125000
6844,-74.218750
6845,-74.218750
6846,-74.218750
6847,-74.218750
6848,-74.218750
6849,-74.218750
6850,-74.218750
6851,-74.218750
6852,-74.218750
6853,-70.312500
6854,-74.218750
6855,-74.218750
6856,-70.312500
6857,-74.218750
6858,-70.312500
6859,-70.312500
6860,-70.312500
6861,-70.312500
6862,-70.312500
6863,-70.312500
6864,-70.312500
6865,-70.312500
6866,-70.312500
6867,-70.312500
6868,-66.406250
6869,-66.406250
6870,-66.406250
6871,-66.406250
6872,-66.406250
6873,-66.406250
6874,-66.406250
6875,-66.406250
6876,-66.406250
6877,-66.406250
6878,-66.406250
6879,-66.406250
6880,-66.406250
6881,-62.500000
6882,-62.500000
6883,-62.500000
6884,-62.500000
6885,-62.500000
6886,-62.500000
6887,-62.500000
6888,-62.500000
6889,-62.500000
6890,-62.500000
6891,-58.593750
6892,-58.593750
6893,-58.593750
6894,-58.593750
6895,-58.593750
6896,-58.593750
6897,-58.593750
6898,-58.593750
6899,-58.593750
6900,-58.593750
6901,-54.687500
6902,-54.687500
6903,-54.687500
6904,-54.687500
6905,-54.687500
6906,-54.687500
6907,-54.687500
6908,-54.687500
6909,-50.781250
6910,-54.687500
6911,-50.781250
6912,-50.781250
6913,-50.781250
6914,-50.781250
6915,-50.781250
6916,-50.781250
6917,-50.781250
6918,-50.781250
6919,-46.875000
6920,-46.875000
6921,-46.875000
6922,-46.875000
6923,-46.875000
6924,-46.875000
6925,-46.875000
6926,-46.875000
6927,-46.875000
6928,-46.875000
6929,-42.968750
6930,-42.968750
6931,-42.968750
6932,-42.968750
6933,-42.968750
6934,-42.968750
6935,-42.968750
6936,-42.968750
6937,-39.062500
6938,-39.062500
6939,-39.062500
6940,-39.062500
6941,-39.062500
6942,-39.062500
6943,-39.062500
6944,-39.062500
6945,-39.062500
6946,-35.156250
6947,-35.156250
6948,-35.156250
6949,-35.156250
6950,-35.156250
6951,-35.156250
6952,-35.156250
6953,-35.156250
6954,-35.156250
6955,-31.250000
6956,-31.250000
6957,-31.250000
6958,-31.250000
6959,-31.250000
6960,-31.250000
6961,-31.250000
6962,-31.250000
6963,-31.250000
6964,-27.343750
6965,-27.343750
6966,-27.343750
6967,-27.343750
6968,-27.343750
6969,-27.343750
6970,-27.343750
6971,-23.437500
6972,-23.437500
6973,-23.437500
6974,-23.437500
6975,-23.437500
6976,-23.437500
6977,-23.437500
6978,-23.437500
6979,-23.437500
6980,-23.437500
6981,-19.531250
6982,-19.531250
6983,-19.531250
6984,-19.531250
6985,-19.531250
6986,-19.531250
6987,-19.531250
6988,-15.625000
6989,-15.625000
6990,-15.625000
6991,-15.625000
6992,-15.625000
6993,-15.625000
6994,-15.625000
6995,-15.625000
6996,-11.718750
6997,-11.718750
6998,-11.718750
6999,-11.718750
7000,-11.718750
7001,-11.718750
7002,-11.718750
7003,-11.718750
7004,-11.718750
7005,-7.812500
7006,-7.812500
7007,-7.812500
7008,-7.812500
7009,-7.812500
7010,-7.812500
7011,-7.812500
7012,-7.812500
7013,-3.906250
7014,-3.906250
7015,-3.906250
7016,-3.906250
7017,-3.906250
7018,-3.906250
7019,-3.906250
7020,-3.906250
7021,-3.906250
7022,0.000000
7023,0.000000
7024,0.000000
7025,0.000000
7026,0.000000
7027,0.000000
7028,0.000000
7029,3.906250
7030,3.906250
7031,3.906250
7032,3.906250
7033,3.906250
7034,3.906250
7035,3.906250
7036,3.906250
7037,3.906250
7038,7.812500
7039,7.812500
7040,7.812500
7041,7.812500
7042,7.812500
7043,7.812500
7044,7.812500
7045,7.812500
7046,7.812500
7047,7.812500
7048,11.718750
7049,11.718750
7050,11.718750
7051,11.718750
7052,11.718750
7053,11.718750
7054,11.718750
7055,11.718750
7056,11.718750
7057,15.625000
7058,15.625000
7059,15.625000
7060,15.625000
7061,15.625000
7062,15.625000
7063,15.625000
7064,15.625000
7065,15.625000
7066,15.625000
7067,19.531250
7068,19.531250
7069,19.531250
7070,19.531250
7071,19.531250
7072,19.531250
7073,19.531250
7074,19.531250
7075,19.531250
7076,19.531250
7077,23.437500
7078,23.437500
7079,23.437500
7080,23.437500
7081,23.437500
7082,23.437500
7083,23.437500
7084,23.437500
7085,23.437500
7086,27.343750
7087,27.343750
7088,27.343750
7089,27.343750
7090,27.343750
7091,27.343750
7092,27.343750
7093,27.343750
7094,27.343750
7095,27.343750
7096,27.343750
7097,27.343750
7098,31.250000
7099,31.250000
7100,31.250000
7101,31.250000
7102,31.250000
7103,31.250000
7104,31.250000
7105,31.250000
7106,31.250000
7107,31.250000
7108,31.250000
7109,35.156250
7110,35.156250
7111,35.156250
7112,35.156250
7113,35.156250
7114,35.156250
7115,35.156250
7116,35.156250
7117,39.062500
7118,35.156250
7119,35.156250
7120,39.062500
7121,39.062500
7122,39.062500
7123,39.062500
7124,39.062500
7125,39.062500
7126,39.062500
7127,39.062500
7128,39.062500
7129,39.062500
7130,39.062500
7131,39.062500
7132,39.062500
7133,42.968750
7134,42.968750
7135,42.968750
7136,42.968750
7137,42.968750
7138,42.968750
7139,42.968750
7140,42.968750
7141,42.968750
7142,42.968750
7143,42.968750
7144,42.968750
7145,42.968750
7146,42.968750
7147,46.875000
7148,46.875000
7149,46.875000
7150,46.875000
7151,46.875000
7152,46.875000
7153,46.875000
7154,46.875000
7155,46.875000
7156,46.875000
7157,46.875000
7158,46.875000
7159,46.875000
7160,46.875000
7161,46.875000
7162,46.875000
7163,50.781250
7164,46.875000
7165,50.781250
7166,50.781250
7167,50.781250
7168,50.781250
7169,50.781250
7170,50.781250
7171,50.781250
7172,50.781250
7173,50.781250
7174,50.781250
7175,50.781250
7176,50.781250
7177,50.781250
7178,50.781250
7179,50.781250
7180,50.781250
7181,50.781250
7182,50.781250
7183,54.687500
7184,54.687500
7185,54.687500
7186,54.687500
7187,54.687500
7188,54.687500
7189,54.687500
7190,54.687500
7191,54.687500
7192,54.687500
7193,54.687500
7194,54.687500
7195,54.687500
7196,54.687500
7197,54.687500
7198,54.687500
7199,54.687500
7200,54.687500
7201,54.687500
7202,54.687500
7203,54.687500
7204,54.687500
7205,54.687500
7206,54.687500
7207,54.687500
7208,54.687500
7209,54.687500
7210,54.687500
7211,54.687500
7212,54.687500
7213,54.687500
7214,54.687500
7215,54.687500
7216,54.687500
7217,58.593750
7218,54.687500
7219,58.593750
7220,58.593750
7221,58.593750
7222,58.593750
7223,58.593750
7224,58.593750
7225,58.593750
7226,58.593750
7227,58.593750
7228,58.593750
7229,58.593750
7230,58.593750
7231,58.593750
7232,58.593750
7233,58.593750
7234,58.593750
7235,58.593750
7236,58.593750
7237,58.593750
7238,58.593750
7239,58.593750
7240,54.687500
7241,58.593750
7242,58.593750
7243,58.593750
7244,58.593750
7245,58.593750
7246,58.593750
7247,58.593750
7248,58.593750
7249,58.593750
7250,58.593750
7251,62.500000
7252,58.593750
7253,58.593750
7254,58.593750
7255,58.593750
7256,58.593750
7257,58.593750
7258,58.593750
7259,58.593750
7260,58.593750
7261,58.593750
7262,58.593750
7263,58.593750
7264,58.593750
7265,58.593750
7266,58.593750
7267,58.593750
7268,58.593750
7269,58.593750
7270,58.593750
7271,58.593750
7272,58.593750
7273,58.593750
7274,58.593750
7275,58.593750
7276,58.593750
7277,58.593750
7278,58.593750
7279,58.593750
7280,58.593750
7281,58.593750
7282,54.687500
7283,58.593750
7284,58.593750
7285,58.593750
7286,58.593750
7287,58.593750
7288,54.687500
7289,54.687500
7290,54.687500
7291,54.687500
7292,54.687500
7293,54.687500
7294,54.687500
7295,54.687500
7296,54.687500
7297,54.687500
7298,54.687500
7299,54.687500
7300,54.687500
7301,54.687500
7302,54.687500
7303,54.687500
7304,54.687500
7305,54.687500
7306,54.687500
7307,54.687500
7308,54.687500
7309,54.687500
7310,54.687500
7311,54.687500
7312,54.687500
7313,54.687500
7314,54.687500
7315,54.687500
7316,50.781250
7317,50.781250
7318,50.781250
7319,50.781250
7320,50.781250
7321,50.781250
7322,50.781250
7323,50.781250
7324,50.781250
7325,50.781250
7326,50.781250
7327,50.781250
7328,50.781250
7329,50.781250
7330,50.781250
7331,50.781250
7332,50.781250
7333,50.781250
7334,50.781250
7335,50.781250
7336,50.781250
7337,50.781250
7338,46.875000
7339,46.875000
7340,46.875000
7341,46.875000
7342,46.875000
7343,46.875000
7344,46.875000
7345,46.875000
7346,46.875000
7347,46.875000
7348,46.875000
7349,46.875000
7350,46.875000
7351,46.875000
7352,46.875000
7353,42.968750
7354,42.968750
7355,42.968750
7356,42.968750
7357,42.968750
7358,42.968750
7359,42.968750
7360,42.968750
7361,42.968750
7362,42.968750
7363,42.968750
7364,42.968750
7365,42.968750
7366,42.968750
7367,39.062500
7368,39.062500
7369,39.062500
7370,39.062500
7371,39.062500
7372,39.062500
7373,39.062500
7374,39.062500
7375,39.062500
7376,39.062500
7377,39.062500
7378,39.062500
7379,39.062500
7380,35.156250
7381,39.062500
7382,35.156250
7383,35.156250
7384,35.156250
7385,35.156250
7386,35.156250
7387,35.156250
7388,35.156250
7389,35.156250
7390,35.156250
7391,35.156250
7392,35.156250
7393,35.156250
7394,31.250000
7395,31.250000
7396,31.250000
7397,31.250000
7398,31.250000
7399,31.250000
7400,31.250000
7401,31.250000
7402,31.250000
7403,27.343750
7404,31.250000
7405,27.343750
7406,27.343750
7407,27.343750
7408,27.343750
7409,27.343750
7410,27.343750
7411,27.343750
7412,27.343750
7413,27.343750
7414,27.343750
7415,27.343750
7416,23.437500
7417,23.437500
7418,23.437500
7419,23.437500
7420,23.437500
7421,23.437500
7422,23.437500
7423,23.437500
7424,23.437500
7425,23.437500
7426,23.437500
7427,19.531250
7428,19.531250
7429,19.531250
7430,19.531250
7431,19.531250
7432,19.531250
7433,19.531250
7434,19.531250
7435,19.531250
7436,15.625000
7437,15.625000
7438,15.625000
7439,15.625000
7440,15.625000
7441,15.625000
7442,15.625000
7443,15.625000
7444,11.718750
7445,11.718750
7446,11.718750
7447,11.718750
7448,11.718750
7449,11.718750
7450,11.718750
7451,11.718750
7452,11.718750
7453,11.718750
7454,11.718750
7455,7.812500
7456,7.812500
7457,7.812500
7458,7.812500
7459,7.812500
7460,7.812500
7461,7.812500
7462,7.812500
7463,3.906250
7464,3.906250
7465,3.906250
7466,3.906250
7467,3.906250
7468,3.906250
7469,3.906250
7470,3.906250
7471,3.906250
7472,0.000000
7473,0.000000
7474,0.000000
7475,0.000000
7476,0.000000
7477,0.000000
7478,0.000000
7479,0.000000
7480,-3.906250
7481,-3.906250
7482,-3.906250
7483,-3.906250
7484,-3.906250
7485,-3.906250
7486,-3.906250
7487,-3.906250
7488,-3.906250
7489,-7.812500
7490,-7.812500
7491,-7.812500
7492,-7.812500
7493,-7.812500
7494,-7.812500
7495,-7.812500
7496,-7.812500
7497,-7.812500
7498,-7.812500
7499,-11.718750
7500,-11.718750
7501,-11.718750
7502,-11.718750
7503,-11.718750
7504,-11.718750
7505,-15.625000
7506,-15.625000
7507,-15.625000
7508,-15.625000
7509,-15.625000
7510,-15.625000
7511,-15.625000
7512,-15.625000
7513,-15.625000
7514,-19.531250
7515,-19.531250
7516,-19.531250
7517,-19.531250
7518,-19.531250
7519,-19.531250
7520,-19.531250
7521,-19.531250
7522,-19.531250
7523,-19.531250
7524,-23.437500
7525,-23.437500
7526,-23.437500
7527,-23.437500
7528,-23.437500
7529,-23.437500
7530,-23.437500
7531,-23.437500
7532,-27.343750
7533,-27.343750
7534,-27.343750
7535,-27.343750
7536,-27.343750
7537,-27.343750
7538,-27.343750
7539,-27.343750
7540,-31.250000
7541,-31.250000
7542,-31.250000
7543,-31.250000
7544,-31.250000
7545,-31.250000
7546,-31.250000
7547,-31.250000
7548,-31.250000
7549,-31.250000
7550,-35.156250
7551,-35.156250
7552,-35.156250
7553,-35.156250
7554,-35.156250
7555,-39.062500
7556,-39.062500
7557,-39.062500
7558,-39.062500
7559,-39.062500
7560,-39.062500
7561,-39.062500
7562,-39.062500
7563,-39.062500
7564,-39.062500
7565,-39.062500
7566,-42.968750
7567,-42.968750
7568,-42.968750
7569,-42.968750
7570,-42.968750
7571,-42.968750
7572,-42.968750
7573,-42.968750
7574,-42.968750
7575,-46.875000
7576,-46.875000
7577,-46.875000
7578,-46.875000
7579,-46.875000
7580,-46.875000
7581,-46.875000
7582,-46.875000
7583,-46.875000
7584,-50.781250
7585,-50.781250
7586,-50.781250
7587,-50.781250
7588,-50.781250
7589,-50.781250
7590,-50.781250
7591,-54.687500
7592,-50.781250
7593,-50.781250
7594,-54.687500
7595,-54.687500
7596,-54.687500
7597,-54.687500
7598,-54.687500
7599,-54.687500
7600,-58.593750
7601,-54.687500
7602,-54.687500
7603,-58.593750
7604,-58.593750
7605,-58.593750
7606,-58.593750
7607,-58.593750
7608,-58.593750
7609,-58.593750
7610,-58.593750
7611,-58.593750
7612,-58.593750
7613,-58.593750
7614,-62.500000
7615,-62.500000
7616,-62.500000
7617,-62.500000
7618,-62.500000
7619,-62.500000
7620,-62.500000
7621,-62.500000
7622,-62.500000
7623,-62.500000
7624,-62.500000
7625,-66.406250
7626,-66.406250
7627,-66.406250
7628,-66.406250
7629,-66.406250
7630,-66.406250
7631,-66.406250
7632,-66.406250
7633,-66.406250
7634,-66.406250
7635,-66.406250
7636,-62.500000
7637,-70.312500
7638,-70.312500
7639,-70.312500
7640,-70.312500
7641,-70.312500
7642,-70.312500
7643,-70.312500
7644,-70.312500
7645,-70.312500
7646,-70.312500
7647,-70.312500
7648,-70.312500
7649,-74.218750
7650,-74.218750
7651,-74.218750
7652,-74.218750
7653,-74.218750
7654,-74.218750
7655,-74.218750
7656,-74.218750
7657,-74.218750
7658,-74.218750
7659,-74.218750
7660,-74.218750
7661,-74.218750
7662,-74.218750
7663,-78.125000
7664,-78.125000
7665,-78.125000
7666,-78.125000
7667,-78.125000
7668,-78.125000
7669,-78.125000
7670,-78.125000
7671,-78.125000
7672,-78.125000
7673,-78.125000
7674,-78.125000
7675,-78.125000
7676,-78.125000
7677,-78.125000
7678,-82.031250
7679,-78.125000
7680,-82.031250
7681,-82.031250
7682,-82.031250
7683,-82.031250
7684,-82.031250
7685,-82.031250
7686,-82.031250
7687,-82.031250
7688,-82.031250
7689,-82.031250
7690,-82.031250
7691,-82.031250
7692,-82.031250
7693,-82.031250
7694,-82.031250
7695,-82.031250
7696,-82.031250
7697,-82.031250
7698,-82.031250
7699,-82.031250
7700,-85.937500
7701,-85.937500
7702,-85.937500
7703,-85.937500
7704,-85.937500
7705,-85.937500
7706,-85.937500
7707,-85.937500
7708,-85.937500
7709,-85.937500
7710,-85.937500
7711,-85.937500
7712,-85.937500
7713,-85.937500
7714,-85.937500
7715,-85.937500
7716,-85.937500
7717,-85.937500
7718,-85.937500
7719,-85.937500
7720,-85.937500
7721,-85.937500
7722,-85.937500
7723,-85.937500
7724,-85.937500
7725,-85.937500
7726,-85.937500
7727,-85.937500
7728,-89.843750
7729,-85.937500
7730,-85.937500
7731,-85.937500
7732,-85.937500
7733,-85.937500
7734,-85.937500
7735,-85.937500
7736,-85.937500
7737,-85.937500
7738,-85.937500
7739,-85.937500
7740,-85.937500
7741,-85.937500
7742,-85.937500
7743,-85.937500
7744,-85.937500
7745,-85.937500
7746,-89.843750
7747,-85.937500
7748,-85.937500
7749,-85.937500
7750,-85.937500
7751,-85.937500
7752,-85.937500
7753,-85.937500
7754,-85.937500
7755,-85.937500
7756,-85.937500
7757,-85.937500
7758,-85.937500
7759,-85.937500
7760,-85.937500
7761,-85.937500
7762,-85.937500
7763,-89.843750
7764,-89.843750
7765,-85.937500
7766,-85.937500
7767,-85.937500
7768,-85.937500
7769,-85.937500
7770,-85.937500
7771,-85.937500
7772,-85.937500
7773,-85.937500
7774,-85.937500
7775,-85.937500
7776,-85.937500
7777,-85.937500
7778,-85.937500
7779,-85.937500
7780,-85.937500
7781,-85.937500
7782,-85.937500
7783,-85.937500
7784,-85.937500
7785,-85.937500
7786,-85.937500
7787,-85.937500
7788,-85.937500
7789,-85.937500
7790,-85.937500
7791,-82.031250
7792,-82.031250
7793,-82.031250
7794,-82.031250
7795,-82.031250
7796,-82.031250
7797,-82.031250
7798,-82.031250
7799,-82.031250
7800,-82.031250
7801,-82.031250
7802,-82.031250
7803,-82.031250
7804,-82.031250
7805,-82.031250
7806,-82.031250
7807,-82.031250
7808,-82.031250
7809,-82.031250
7810,-82.031250
7811,-82.031250
7812,-82.031250
7813,-78.125000
7814,-78.125000
7815,-78.125000
7816,-82.031250
7817,-78.125000
7818,-78.125000
7819,-78.125000
7820,-78.125000
7821,-78.125000
7822,-78.125000
7823,-78.125000
7824,-78.125000
7825,-78.125000
7826,-78.125000
7827,-78.125000
7828,-78.125000
7829,-78.125000
7830,-78.125000
7831,-74.218750
7832,-78.125000
7833,-74.218750
7834,-74.218750
7835,-74.218750
7836,-74.218750
7837,-74.218750
7838,-74.218750
7839,-74.218750
7840,-74.218750
7841,-74.218750
7842,-74.218750
7843,-74.218750
7844,-74.218750
7845,-70.312500
7846,-74.218750
7847,-70.312500
7848,-70.312500
7849,-70.312500
7850,-70.312500
7851,-70.312500
7852,-70.312500
7853,-70.312500
7854,-70.312500
7855,-70.312500
7856,-70.312500
7857,-70.312500
7858,-70.312500
7859,-66.406250
7860,-66.406250
7861,-66.406250
7862,-66.406250
7863,-66.406250
7864,-66.406250
7865,-66.406250
7866,-66.406250
7867,-66.406250
7868,-66.406250
7869,-66.406250
7870,-62.500000
7871,-62.500000
7872,-66.406250
7873,-62.500000
7874,-62.500000
7875,-62.500000
7876,-62.500000
7877,-62.500000
7878,-62.500000
7879,-62.500000
7880,-62.500000
7881,-58.593750
7882,-58.593750
7883,-58.593750
7884,-58.593750
7885,-58.593750
7886,-58.593750
7887,-58.593750
7888,-58.593750
7889,-58.593750
7890,-58.593750
7891,-54.687500
7892,-54.687500
7893,-54.687500
7894,-54.687500
7895,-54.687500
7896,-54.687500
7897,-54.687500
7898,-54.687500
7899,-50.781250
7900,-50.781250
7901,-50.781250
7902,-50.781250
7903,-50.781250
7904,-50.781250
7905,-50.781250
7906,-50.781250
7907,-50.781250
7908,-50.781250
7909,-46.875000
7910,-46.875000
7911,-46.875000
7912,-46.875000
7913,-46.875000
7914,-46.875000
7915,-46.875000
7916,-46.875000
7917,-46.875000
7918,-46.875000
7919,-42.968750
7920,-42.968750
7921,-42.968750
7922,-42.968750
7923,-42.968750
7924,-42.968750
7925,-42.968750
7926,-42.968750
7927,-39.062500
7928,-39.062500
7929,-39.062500
7930,-39.062500
7931,-39.062500
7932,-39.062500
7933,-39.062500
7934,-39.062500
7935,-35.156250
7936,-39.062500
7937,-35.156250
7938,-35.156250
7939,-35.156250
7940,-35.156250
7941,-35.156250
7942,-35.156250
7943,-35.156250
7944,-35.156250
7945,-31.250000
7946,-35.156250
7947,-31.250000
7948,-31.250000
7949,-31.250000
7950,-31.250000
7951,-31.250000
7952,-31.250000
7953,-31.250000
7954,-27.343750
7955,-27.343750
7956,-27.343750
7957,-27.343750
7958,-27.343750
7959,-27.343750
7960,-27.343750
7961,-27.343750
7962,-23.437500
7963,-23.437500
7964,-23.437500
7965,-23.437500
7966,-23.437500
7967,-23.437500
7968,-23.437500
7969,-23.437500
7970,-19.531250
7971,-19.531250
7972,-19.531250
7973,-19.531250
7974,-19.531250
7975,-19.531250
7976,-19.531250
7977,-19.531250
7978,-19.531250
7979,-15.625000
7980,-15.625000
7981,-15.625000
7982,-15.625000
7983,-15.625000
7984,-15.625000
7985,-15.625000
7986,-15.625000
7987,-11.718750
7988,-11.718750
7989,-11.718750
7990,-11.718750
7991,-11.718750
7992,-11.718750
7993,-11.718750
7994,-11.718750
7995,-11.718750
7996,-7.812500
7997,-7.812500
7998,-7.812500
7999,-7.812500
8000,-7.812500
8001,-7.812500
8002,-7.812500
8003,-7.812500
8004,-7.812500
8005,-3.906250
8006,-3.906250
8007,-3.906250
8008,-3.906250
8009,-3.906250
8010,-3.906250
8011,-3.906250
8012,-3.906250
8013,0.000000
8014,0.000000
8015,0.000000
8016,0.000000
8017,0.000000
8018,0.000000
8019,0.000000
8020,0.000000
8021,0.000000
8022,3.906250
8023,3.906250
8024,3.906250
8025,3.906250
8026,3.906250
8027,3.906250
8028,3.906250
8029,3.906250
8030,7.812500
8031,7.812500
8032,7.812500
8033,7.812500
8034,7.812500
8035,7.812500
8036,7.812500
8037,7.812500
8038,11.718750
8039,11.718750
8040,11.718750
8041,11.718750
8042,11.718750
8043,11.718750
8044,11.718750
8045,11.718750
8046,11.718750
8047,15.625000
8048,15.625000
8049,15.625000
8050,15.625000
8051,15.625000
8052,15.625000
8053,15.625000
8054,15.625000
8055,19.531250
8056,15.625000
8057,19.531250
8058,19.531250
8059,19.531250
8060,19.531250
8061,19.531250
8062,19.531250
8063,19.531250
8064,19.531250
8065,19.531250
8066,19.531250
8067,23.437500
8068,23.437500
8069,23.437500
8070,23.437500
8071,23.437500
8072,23.437500
8073,23.437500
8074,23.437500
8075,23.437500
8076,23.437500
8077,27.343750
8078,27.343750
8079,27.343750
8080,27.343750
8081,27.343750
8082,27.343750
8083,27.343750
8084,27.343750
8085,27.343750
8086,27.343750
8087,31.250000
8088,31.250000
8089,31.250000
8090,31.250000
8091,31.250000
8092,31.250000
8093,31.250000
8094,31.250000
8095,31.250000
8096,31.250000
8097,31.250000
8098,31.250000
8099,35.156250
8100,35.156250
8101,35.156250
8102,35.156250
8103,35.156250
8104,35.156250
8105,35.156250
8106,35.156250
8107,35.156250
8108,35.156250
8109,35.156250
8110,35.156250
8111,35.156250
8112,39.062500
8113,39.062500
8114,39.062500
8115,39.062500
8116,39.062500
8117,39.062500
8118,39.062500
8119,39.062500
8120,39.062500
8121,39.062500
8122,39.062500
8123,42.968750
8124,42.968750
8125,39.062500
8126,39.062500
8127,42.968750
8128,42.968750
8129,42.968750
8130,42.968750
8131,42.968750
8132,42.968750
8133,42.968750
8134,42.968750
8135,42.968750
8136,42.968750
8137,42.968750
8138,42.968750
8139,46.875000
8140,46.875000
8141,46.875000
8142,46.875000
8143,46.875000
8144,46.875000
8145,46.875000
8146,46.875000
8147,46.875000
8148,46.875000
8149,46.875000
8150,46.875000
8151,46.875000
8152,46.875000
8153,46.875000
8154,46.875000
8155,50.781250
8156,50.781250
8157,50.781250
8158,50.781250
8159,50.781250
8160,50.781250
8161,50.781250
8162,50.781250
8163,50.781250
8164,50.781250
8165,50.781250
8166,50.781250
8167,50.781250
8168,50.781250
8169,50.781250
8170,50.781250
8171,50.781250
8172,50.781250
8173,54.687500
8174,50.781250
8175,50.781250
8176,50.781250
8177,50.781250
8178,54.687500
8179,54.687500
8180,54.687500
8181,54.687500
8182,54.687500
8183,54.687500
8184,54.687500
8185,54.687500
8186,54.687500
8187,54.687500
8188,54.687500
8189,54.687500
8190,54.687500
8191,54.687500
8192,54.687500
8193,54.687500
8194,54.687500
8195,54.687500
8196,54.687500
8197,54.687500
8198,54.687500
8199,54.687500
8200,54.687500
8201,54.687500
8202,54.687500
8203,54.687500
8204,58.593750
8205,54.687500
8206,54.687500
8207,58.593750
8208,58.593750
8209,58.593750
8210,54.687500
8211,58.593750
8212,58.593750
8213,58.593750
8214,58.593750
8215,58.593750
8216,58.593750
8217,58.593750
8218,58.593750
8219,58.593750
8220,58.593750
8221,58.593750
8222,58.593750
8223,58.593750
8224,58.593750
8225,58.593750
8226,58.593750
8227,58.593750
8228,58.593750
8229,58.593750
8230,58.593750
8231,58.593750
8232,58.593750
8233,58.593750
8234,58.593750
8235,58.593750
8236,58.593750
8237,58.593750
8238,58.593750
8239,58.593750
8240,58.593750
8241,58.593750
8242,58.593750
8243,58.593750
8244,58.593750
8245,58.593750
8246,58.593750
8247,58.593750
8248,58.593750
8249,58.593750
8250,58.593750
8251,58.593750
8252,58.593750
8253,58.593750
8254,58.593750
8255,58.593750
8256,58.593750
8257,58.593750
8258,58.593750
8259,58.593750
8260,58.593750
8261,58.593750
8262,58.593750
8263,58.593750
8264,58.593750
8265,58.593750
8266,58.593750
8267,58.593750
8268,58.593750
8269,58.593750
8270,58.593750
8271,54.687500
8272,54.687500
8273,54.687500
8274,54.687500
8275,54.687500
8276,54.687500
8277,54.687500
8278,58.593750
8279,54.687500
8280,54.687500
8281,54.687500
8282,54.687500
8283,58.593750
8284,54.687500
8285,54.687500
8286,54.687500
8287,54.687500
8288,54.687500
8289,54.687500
8290,54.687500
8291,54.687500
8292,54.687500
8293,54.687500
8294,54.687500
8295,54.687500
8296,54.687500
8297,54.687500
8298,54.687500
8299,54.687500
8300,54.687500
8301,54.687500
8302,54.687500
8303,54.687500
8304,54.687500
8305,54.687500
8306,54.687500
8307,54.687500
8308,50.781250
8309,54.687500
8310,50.781250
8311,50.781250
8312,50.781250
8313,50.781250
8314,50.781250
8315,50.781250
8316,50.781250
8317,50.781250
8318,50.781250
8319,50.781250
8320,50.781250
8321,50.781250
8322,50.781250
8323,50.781250
8324,50.781250
8325,50.781250
8326,50.781250
8327,50.781250
8328,46.875000
8329,46.875000
8330,46.875000
8331,46.875000
8332,46.875000
8333,46.875000
8334,46.875000
8335,46.875000
8336,46.875000
8337,46.875000
8338,46.875000
8339,46.875000
8340,46.875000
8341,46.875000
8342,46.875000
8343,46.875000
8344,46.875000
8345,46.875000
8346,42.968750
8347,42.968750
8348,42.968750
8349,42.968750
8350,42.968750
8351,42.968750
8352,42.968750
8353,42.968750
8354,42.968750
8355,42.968750
8356,42.968750
8357,42.968750
8358,42.968750
8359,42.968750
8360,39.062500
8361,39.062500
8362,39.062500
8363,39.062500
8364,39.062500
8365,39.062500
8366,39.062500
8367,39.062500
8368,39.062500
8369,39.062500
8370,39.062500
8371,39.062500
8372,35.156250
8373,35.156250
8374,35.156250
8375,35.156250
8376,35.156250
8377,35.156250
8378,35.156250
8379,35.156250
8380,35.156250
8381,35.156250
8382,35.156250
8383,35.156250
8384,31.250000
8385,35.156250
8386,31.250000
8387,31.250000
8388,31.250000
8389,31.250000
8390,31.250000
8391,31.250000
8392,31.250000
8393,31.250000
8394,31.250000
8395,31.250000
8396,31.250000
8397,27.343750
8398,27.343750
8399,27.343750
8400,27.343750
8401,27.343750
8402,27.343750
8403,27.343750
8404,27.343750
8405,27.343750
8406,27.343750
8407,27.343750
8408,23.437500
8409,23.437500
8410,23.437500
8411,23.437500
8412,23.437500
8413,23.437500
8414,23.437500
8415,23.437500
8416,23.437500
8417,19.531250
8418,19.531250
8419,19.531250
8420,19.531250
8421,19.531250
8422,19.531250
8423,19.531250
8424,19.531250
8425,19.531250
8426,19.531250
8427,19.531250
8428,19.531250
8429,15.625000
8430,15.625000
8431,15.625000
8432,15.625000
8433,15.625000
8434,15.625000
8435,15.625000
8436,11.718750
8437,11.718750
8438,11.718750
8439,11.718750
8440,11.718750
8441,11.718750
8442,11.718750
8443,11.718750
8444,11.718750
8445,11.718750
8446,11.718750
8447,7.812500
8448,7.812500
8449,7.812500
8450,7.812500
8451,7.812500
8452,7.812500
8453,7.812500
8454,3.906250
8455,3.906250
8456,3.906250
8457,3.906250
8458,3.906250
8459,3.906250
8460,3.906250
8461,3.906250
8462,3.906250
8463,3.906250
8464,0.000000
8465,0.000000
8466,0.000000
8467,0.000000
8468,0.000000
8469,0.000000
8470,0.000000
8471,0.000000
8472,0.000000
8473,-3.906250
8474,-3.906250
8475,-3.906250
8476,-3.906250
8477,-3.906250
8478,-3.906250
8479,-3.906250
8480,-7.812500
8481,-7.812500
8482,-7.812500
8483,-7.812500
8484,-7.812500
8485,-7.812500
8486,-7.812500
8487,-7.812500
8488,-7.812500
8489,-11.718750
8490,-11.718750
8491,-11.718750
8492,-11.718750
8493,-11.718750
8494,-11.718750
8495,-11.718750
8496,-11.718750
8497,-11.718750
8498,-15.625000
8499,-15.625000
8500,-15.625000
8501,-15.625000
8502,-15.625000
8503,-15.625000
8504,-15.625000
8505,-19.531250
8506,-19.531250
8507,-19.531250
8508,-19.531250
8509,-19.531250
8510,-19.531250
8511,-19.531250
8512,-19.531250
8513,-19.531250
8514,-23.437500
8515,-23.437500
8516,-23.437500
8517,-23.437500
8518,-23.437500
8519,-23.437500
8520,-23.437500
8521,-23.437500
8522,-27.343750
8523,-27.343750
8524,-27.343750
8525,-27.343750
8526,-27.343750
8527,-27.343750
8528,-27.343750
8529,-27.343750
8530,-31.250000
8531,-31.250000
8532,-31.250000
8533,-31.250000
8534,-31.250000
8535,-31.250000
8536,-31.250000
8537,-31.250000
8538,-35.156250
8539,-35.156250
8540,-35.156250
8541,-35.156250
8542,-35.156250
8543,-35.156250
8544,-35.156250
8545,-35.156250
8546,-35.156250
8547,-35.156250
8548,-39.062500
8549,-39.062500
8550,-39.062500
8551,-39.062500
8552,-39.062500
8553,-39.062500
8554,-39.062500
8555,-39.062500
8556,-42.968750
8557,-42.968750
8558,-42.968750
8559,-42.968750
8560,-42.968750
8561,-42.968750
8562,-42.968750
8563,-42.968750
8564,-42.968750
8565,-42.968750
8566,-46.875000
8567,-46.875000
8568,-46.875000
8569,-46.875000
8570,-46.875000
8571,-46.875000
8572,-46.875000
8573,-46.875000
8574,-46.875000
8575,-46.875000
8576,-50.781250
8577,-50.781250
8578,-50.781250
8579,-50.781250
8580,-50.781250
8581,-50.781250
8582,-50.781250
8583,-54.687500
8584,-54.687500
8585,-54.687500
8586,-54.687500
8587,-54.687500
8588,-54.687500
8589,-54.687500
8590,-54.687500
8591,-54.687500
8592,-54.687500
8593,-54.687500
8594,-58.593750
8595,-58.593750
8596,-58.593750
8597,-58.593750
8598,-58.593750
8599,-58.593750
8600,-58.593750
8601,-58.593750
8602,-58.593750
8603,-62.500000
8604,-62.500000
8605,-58.593750
8606,-62.500000
8607,-62.500000
8608,-62.500000
8609,-62.500000
8610,-62.500000
8611,-62.500000
8612,-62.500000
8613,-62.500000
8614,-66.406250
8615,-66.406250
8616,-66.406250
8617,-66.406250
8618,-66.406250
8619,-66.406250
8620,-66.406250
8621,-66.406250
8622,-66.406250
8623,-66.406250
8624,-66.406250
8625,-66.406250
8626,-70.312500
8627,-70.312500
8628,-70.312500
8629,-70.312500
8630,-70.312500
8631,-70.312500
8632,-70.312500
8633,-70.312500
8634,-70.312500
8635,-70.312500
8636,-70.312500
8637,-70.312500
8638,-74.218750
8639,-74.218750
8640,-74.218750
8641,-74.218750
8642,-74.218750
8643,-74.218750
8644,-74.218750
8645,-74.218750
8646,-74.218750
8647,-74.218750
8648,-74.218750
8649,-74.218750
8650,-74.218750
8651,-74.218750
8652,-78.125000
8653,-78.125000
8654,-78.125000
8655,-78.125000
8656,-78.125000
8657,-78.125000
8658,-78.125000
8659,-78.125000
8660,-78.125000
8661,-78.125000
8662,-78.125000
8663,-78.125000
8664,-78.125000
8665,-78.125000
8666,-78.125000
8667,-78.125000
8668,-78.125000
8669,-78.125000
8670,-78.125000
8671,-82.031250
8672,-82.031250
8673,-82.031250
8674,-82.031250
8675,-82.031250
8676,-82.031250
8677,-82.031250
8678,-82.031250
8679,-82.031250
8680,-82.031250
8681,-82.031250
8682,-82.031250
8683,-82.031250
8684,-82.031250
8685,-82.031250
8686,-82.031250
8687,-82.031250
8688,-82.031250
8689,-82.031250
8690,-82.031250
8691,-85.937500
8692,-85.937500
8693,-85.937500
8694,-85.937500
8695,-85.937500
8696,-85.937500
8697,-85.937500
8698,-85.937500
8699,-85.937500
8700,-85.937500
8701,-85.937500
8702,-85.937500
8703,-85.937500
8704,-85.937500
8705,-85.937500
8706,-85.937500
8707,-85.937500
8708,-85.937500
8709,-85.937500
8710,-85.937500
8711,-85.937500
8712,-85.937500
8713,-85.937500
8714,-85.937500
8715,-85.937500
8716,-85.937500
8717,-85.937500
8718,-85.937500
8719,-85.937500
8720,-85.937500
8721,-85.937500
8722,-85.937500
8723,-85.937500
8724,-85.937500
8725,-85.937500
8726,-85.937500
8727,-85.937500
8728,-85.937500
8729,-85.937500
8730,-85.937500
8731,-85.937500
8732,-85.937500
8733,-89.843750
8734,-89.843750
8735,-85.937500
8736,-85.937500
8737,-89.843750
8738,-85.937500
8739,-89.843750
8740,-85.937500
8741,-85.937500
8742,-85.937500
8743,-85.937500
8744,-85.937500
8745,-85.937500
8746,-85.937500
8747,-85.937500
8748,-89.843750
8749,-85.937500
8750,-85.937500
8751,-89.843750
8752,-89.843750
8753,-85.937500
8754,-85.937500
8755,-85.937500
8756,-85.937500
8757,-85.937500
8758,-85.937500
8759,-85.937500
8760,-85.937500
8761,-85.937500
8762,-85.937500
8763,-85.937500
8764,-85.937500
8765,-85.937500
8766,-85.937500
8767,-85.937500
8768,-85.937500
8769,-85.937500
8770,-85.937500
8771,-85.937500
8772,-85.937500
8773,-85.937500
8774,-85.937500
8775,-85.937500
8776,-85.937500
8777,-85.937500
8778,-85.937500
8779,-82.031250
8780,-82.031250
8781,-82.031250
8782,-85.937500
8783,-85.937500
8784,-85.937500
8785,-82.031250
8786,-82.031250
8787,-82.031250
8788,-82.031250
8789,-82.031250
8790,-82.031250
8791,-82.031250
8792,-82.031250
8793,-82.031250
8794,-82.031250
8795,-82.031250
8796,-82.031250
8797,-82.031250
8798,-82.031250
8799,-82.031250
8800,-82.031250
8801,-82.031250
8802,-82.031250
8803,-82.031250
8804,-82.031250
8805,-78.125000
8806,-78.125000
8807,-78.125000
8808,-78.125000
8809,-78.125000
8810,-78.125000
8811,-78.125000
8812,-78.125000
8813,-78.125000
8814,-78.125000
8815,-78.125000
8816,-78.125000
8817,-78.125000
8818,-78.125000
8819,-74.218750
8820,-78.125000
8821,-78.125000
8822,-74.218750
8823,-78.125000
8824,-78.125000
8825,-74.218750
8826,-74.218750
8827,-74.218750
8828,-74.218750
8829,-74.218750
8830,-74.218750
8831,-74.218750
8832,-74.218750
8833,-74.218750
8834,-74.218750
8835,-74.218750
8836,-70.312500
8837,-70.312500
8838,-70.312500
8839,-70.312500
8840,-70.312500
8841,-70.312500
8842,-70.312500
8843,-70.312500
8844,-70.312500
8845,-70.312500
8846,-70.312500
8847,-70.312500
8848,-66.406250
8849,-66.406250
8850,-66.406250
8851,-66.406250
8852,-66.406250
8853,-66.406250
8854,-66.406250
8855,-66.406250
8856,-66.406250
8857,-66.406250
8858,-66.406250
8859,-66.406250
8860,-66.406250
8861,-62.500000
8862,-62.500000
8863,-62.500000
8864,-62.500000
8865,-62.500000
8866,-62.500000
8867,-62.500000
8868,-62.500000
8869,-62.500000
8870,-62.500000
8871,-62.500000
8872,-58.593750
8873,-58.593750
8874,-58.593750
8875,-58.593750
8876,-58.593750
8877,-58.593750
8878,-58.593750
8879,-58.593750
8880,-58.593750
8881,-54.687500
8882,-54.687500
8883,-54.687500
8884,-54.687500
8885,-54.687500
8886,-54.687500
8887,-54.687500
8888,-54.687500
8889,-54.687500
8890,-54.687500
8891,-50.781250
8892,-50.781250
8893,-50.781250
8894,-50.781250
8895,-50.781250
8896,-50.781250
8897,-50.781250
8898,-50.781250
8899,-46.875000
8900,-46.875000
8901,-46.875000
8902,-46.875000
8903,-46.875000
8904,-46.875000
8905,-46.875000
8906,-46.875000
8907,-46.875000
8908,-46.875000
8909,-46.875000
8910,-42.968750
8911,-42.968750
8912,-42.968750
8913,-42.968750
8914,-42.968750
8915,-42.968750
8916,-42.968750
8917,-42.968750
8918,-42.968750
8919,-39.062500
8920,-39.062500
8921,-39.062500
8922,-39.062500
8923,-39.062500
8924,-39.062500
8925,-39.062500
8926,-39.062500
8927,-39.062500
8928,-39.062500
8929,-35.156250
8930,-35.156250
8931,-35.156250
8932,-35.156250
8933,-35.156250
8934,-35.156250
8935,-31.250000
8936,-31.250000
8937,-31.250000
8938,-31.250000
8939,-31.250000
8940,-31.250000
8941,-31.250000
8942,-31.250000
8943,-27.343750
8944,-27.343750
8945,-27.343750
8946,-27.343750
8947,-27.343750
8948,-27.343750
8949,-27.343750
8950,-27.343750
8951,-27.343750
8952,-27.343750
8953,-23.437500
8954,-23.437500
8955,-23.437500
8956,-23.437500
8957,-23.437500
8958,-23.437500
8959,-19.531250
8960,-23.437500
8961,-19.531250
8962,-19.531250
8963,-19.531250
8964,-19.531250
8965,-19.531250
8966,-19.531250
8967,-15.625000
8968,-19.531250
8969,-15.625000
8970,-15.625000
8971,-15.625000
8972,-15.625000
8973,-15.625000
8974,-15.625000
8975,-15.625000
8976,-15.625000
8977,-11.718750
8978,-11.718750
8979,-11.718750
8980,-11.718750
8981,-11.718750
8982,-11.718750
8983,-11.718750
8984,-7.812500
8985,-7.812500
8986,-7.812500
8987,-7.812500
8988,-7.812500
8989,-7.812500
8990,-7.812500
8991,-7.812500
8992,-7.812500
8993,-7.812500
8994,-3.906250
8995,-3.906250
8996,-3.906250
8997,-3.906250
8998,-3.906250
8999,-3.906250
9000,-3.906250
9001,-3.906250
9002,0.000000
9003,0.000000
9004,0.000000
9005,0.000000
9006,0.000000
9007,0.000000
9008,0.000000
9009,0.000000
9010,0.000000
9011,3.906250
9012,3.906250
9013,3.906250
9014,3.906250
9015,3.906250
9016,3.906250
9017,3.906250
9018,3.906250
9019,7.812500
9020,7.812500
9021,7.812500
9022,7.812500
9023,7.812500
9024,7.812500
9025,7.812500
9026,7.812500
9027,7.812500
9028,7.812500
9029,11.718750
9030,11.718750
9031,11.718750
9032,11.718750
9033,11.718750
9034,11.718750
9035,11.718750
9036,11.718750
9037,15.625000
9038,15.625000
9039,15.625000
9040,15.625000
9041,15.625000
9042,15.625000
9043,15.625000
9044,15.625000
9045,15.625000
9046,15.625000
9047,15.625000
9048,19.531250
9049,19.531250
9050,19.531250
9051,19.531250
9052,19.531250
9053,19.531250
9054,19.531250
9055,19.531250
9056,23.437500
9057,23.437500
9058,23.437500
9059,23.437500
9060,23.437500
9061,23.437500
9062,23.437500
9063,23.437500
9064,23.437500
9065,23.437500
9066,23.437500
9067,27.343750
9068,27.343750
9069,27.343750
9070,27.343750
9071,27.343750
9072,27.343750
9073,27.343750
9074,27.343750
9075,27.343750
9076,31.250000
9077,31.250000
9078,31.250000
9079,31.250000
9080,31.250000
9081,31.250000
9082,31.250000
9083,31.250000
9084,31.250000
9085,31.250000
9086,31.250000
9087,31.250000
9088,35.156250
9089,35.156250
9090,35.156250
9091,35.156250
9092,35.156250
9093,35.156250
9094,35.156250
9095,35.156250
9096,35.156250
9097,35.156250
9098,35.156250
9099,35.156250
9100,39.062500
9101,39.062500
9102,39.062500
9103,39.062500
9104,39.062500
9105,39.062500
9106,39.062500
9107,39.062500
9108,39.062500
9109,39.062500
9110,42.968750
9111,39.062500
9112,39.062500
9113,39.062500
9114,42.968750
9115,42.968750
9116,42.968750
9117,42.968750
9118,42.968750
9119,42.968750
9120,42.968750
9121,42.968750
9122,42.968750
9123,42.968750
9124,42.968750
9125,42.968750
9126,42.968750
9127,42.968750
9128,42.968750
9129,46.875000
9130,46.875000
9131,46.875000
9132,46.875000
9133,46.875000
9134,46.875000
9135,46.875000
9136,46.875000
9137,46.875000
9138,46.875000
9139,46.875000
9140,46.875000
9141,46.875000
9142,50.781250
9143,46.875000
9144,46.875000
9145,50.781250
9146,50.781250
9147,50.781250
9148,50.781250
9149,50.781250
9150,50.781250
9151,50.781250
9152,50.781250
9153,50.781250
9154,50.781250
9155,50.781250
9156,50.781250
9157,50.781250
9158,50.781250
9159,50.781250
9160,50.781250
9161,50.781250
9162,54.687500
9163,54.687500
9164,50.781250
9165,54.687500
9166,54.687500
9167,54.687500
9168,54.687500
9169,54.687500
9170,54.687500
9171,54.687500
9172,50.781250
9173,54.687500
9174,54.687500
9175,50.781250
9176,54.687500
9177,54.687500
9178,54.687500
9179,54.687500
9180,54.687500
9181,54.687500
9182,54.687500
9183,54.687500
9184,54.687500
9185,54.687500
9186,54.687500
9187,58.593750
9188,54.687500
9189,54.687500
9190,54.687500
9191,54.687500
9192,58.593750
9193,58.593750
9194,58.593750
9195,58.593750
9196,58.593750
9197,58.593750
9198,58.593750
9199,58.593750
9200,58.593750
9201,58.593750
9202,62.500000
9203,58.593750
9204,58.593750
9205,58.593750
9206,58.593750
9207,58.593750
9208,58.593750
9209,58.593750
9210,58.593750
9211,58.593750
9212,58.593750
9213,58.593750
9214,58.593750
9215,58.593750
9216,58.593750
9217,58.593750
9218,58.593750
9219,58.593750
9220,58.593750
9221,58.593750
9222,58.593750
9223,58.593750
9224,58.593750
9225,58.593750
9226,58.593750
9227,58.593750
9228,58.593750
9229,58.593750
9230,58.593750
9231,58.593750
9232,58.593750
9233,58.593750
9234,58.593750
9235,58.593750
9236,58.593750
9237,58.593750
9238,58.593750
9239,58.593750
9240,58.593750
9241,58.593750
9242,58.593750
9243,58.593750
9244,58.593750
9245,58.593750
9246,58.593750
9247,58.593750
9248,58.593750
9249,58.593750
9250,58.593750
9251,58.593750
9252,58.593750
9253,58.593750
9254,58.593750
9255,58.593750
9256,58.593750
9257,58.593750
9258,58.593750
9259,58.593750
9260,58.593750
9261,58.593750
9262,58.593750
9263,58.593750
9264,58.593750
9265,58.593750
9266,58.593750
9267,58.593750
9268,58.593750
9269,54.687500
9270,58.593750
9271,58.593750
9272,54.687500
9273,58.593750
9274,54.687500
9275,54.687500
9276,54.687500
9277,54.687500
9278,54.687500
9279,54.687500
9280,54.687500
9281,54.687500
9282,54.687500
9283,54.687500
9284,54.687500
9285,54.687500
9286,54.687500
9287,54.687500
9288,54.687500
9289,54.687500
9290,54.687500
9291,54.687500
9292,54.687500
9293,54.687500
9294,54.687500
9295,54.687500
9296,50.781250
9297,54.687500
9298,50.781250
9299,54.687500
9300,54.687500
9301,54.687500
9302,50.781250
9303,50.781250
9304,50.781250
9305,50.781250
9306,50.781250
9307,50.781250
9308,50.781250
9309,50.781250
9310,50.781250
9311,50.781250
9312,50.781250
9313,50.781250
9314,50.781250
9315,50.781250
9316,50.781250
9317,50.781250
9318,46.875000
9319,50.781250
9320,46.875000
9321,46.875000
9322,46.875000
9323,46.875000
9324,46.875000
9325,46.875000
9326,46.875000
9327,46.875000
9328,46.875000
9329,46.875000
9330,46.875000
9331,46.875000
9332,46.875000
9333,46.875000
9334,46.875000
9335,46.875000
9336,46.875000
9337,46.875000
9338,46.875000
9339,42.968750
9340,42.968750
9341,42.968750
9342,42.968750
9343,42.968750
9344,42.968750
9345,42.968750
9346,42.968750
9347,42.968750
9348,42.968750
9349,42.968750
9350,39.062500
9351,39.062500
9352,39.062500
9353,39.062500
9354,39.062500
9355,39.062500
9356,39.062500
9357,39.062500
9358,39.062500
9359,39.062500
9360,39.062500
9361,39.062500
9362,39.062500
9363,39.062500
9364,35.156250
9365,35.156250
9366,35.156250
9367,35.156250
9368,35.156250
9369,35.156250
9370,35.156250
9371,35.156250
9372,35.156250
9373,35.156250
9374,35.156250
9375,35.156250
9376,31.250000
9377,31.250000
9378,31.250000
9379,31.250000
9380,31.250000
9381,31.250000
9382,31.250000
9383,31.250000
9384,31.250000
9385,31.250000
9386,27.343750
9387,27.343750
9388,27.343750
9389,27.343750
9390,27.343750
9391,27.343750
9392,27.343750
9393,27.343750
9394,27.343750
9395,27.343750
9396,23.437500
9397,27.343750
9398,23.437500
9399,23.437500
9400,23.437500
9401,23.437500
9402,23.437500
9403,23.437500
9404,23.437500
9405,23.437500
9406,23.437500
9407,19.531250
9408,19.531250
9409,19.531250
9410,19.531250
9411,19.531250
9412,19.531250
9413,19.531250
9414,19.531250
9415,19.531250
9416,15.625000
9417,19.531250
9418,15.625000
9419,15.625000
9420,15.625000
9421,15.625000
9422,15.625000
9423,15.625000
9424,15.625000
9425,15.625000
9426,15.625000
9427,11.718750
9428,11.718750
9429,11.718750
9430,11.718750
9431,11.718750
9432,11.718750
9433,11.718750
9434,11.718750
9435,11.718750
9436,11.718750
9437,7.812500
9438,7.812500
9439,7.812500
9440,7.812500
9441,7.812500
9442,7.812500
9443,7.812500
9444,3.906250
9445,7.812500
9446,3.906250
9447,3.906250
9448,3.906250
9449,3.906250
9450,3.906250
9451,3.906250
9452,0.000000
9453,3.906250
9454,0.000000
9455,0.000000
9456,0.000000
9457,0.000000
9458,0.000000
9459,0.000000
9460,0.000000
9461,0.000000
9462,-3.906250
9463,-3.906250
9464,-3.906250
9465,-3.906250
9466,-3.906250
9467,-3.906250
9468,-3.906250
9469,-3.906250
9470,-7.812500
9471,-7.812500
9472,-7.812500
9473,-7.812500
9474,-7.812500
9475,-7.812500
9476,-7.812500
9477,-7.812500
9478,-11.718750
9479,-11.718750
9480,-11.718750
9481,-11.718750
9482,-11.718750
9483,-11.718750
9484,-11.718750
9485,-11.718750
9486,-11.718750
9487,-15.625000
9488,-15.625000
9489,-15.625000
9490,-15.625000
9491,-15.625000
9492,-15.625000
9493,-15.625000
9494,-15.625000
9495,-15.625000
9496,-19.531250
9497,-19.531250
9498,-19.531250
9499,-19.531250
9500,-19.531250
9501,-19.531250
9502,-19.531250
9503,-19.531250
9504,-19.531250
9505,-23.437500
9506,-23.437500
9507,-23.437500
9508,-23.437500
9509,-27.343750
9510,-23.437500
9511,-23.437500
9512,-27.343750
9513,-27.343750
9514,-27.343750
9515,-27.343750
9516,-27.343750
9517,-27.343750
9518,-27.343750
9519,-27.343750
9520,-31.250000
9521,-31.250000
9522,-31.250000
9523,-31.250000
9524,-31.250000
9525,-31.250000
9526,-31.250000
9527,-31.250000
9528,-35.156250
9529,-35.156250
9530,-35.156250
9531,-35.156250
9532,-35.156250
9533,-35.156250
9534,-35.156250
9535,-35.156250
9536,-39.062500
9537,-39.062500
9538,-39.062500
9539,-39.062500
9540,-39.062500
9541,-39.062500
9542,-39.062500
9543,-39.062500
9544,-39.062500
9545,-39.062500
9546,-42.968750
9547,-42.968750
9548,-42.968750
9549,-42.968750
9550,-46.875000
9551,-42.968750
9552,-42.968750
9553,-42.968750
9554,-46.875000
9555,-42.968750
9556,-46.875000
9557,-46.875000
9558,-46.875000
9559,-46.875000
9560,-46.875000
9561,-46.875000
9562,-46.875000
9563,-46.875000
9564,-50.781250
9565,-50.781250
9566,-50.781250
9567,-50.781250
9568,-50.781250
9569,-50.781250
9570,-50.781250
9571,-50.781250
9572,-50.781250
9573,-50.781250
9574,-54.687500
9575,-54.687500
9576,-54.687500
9577,-54.687500
9578,-54.687500
9579,-54.687500
9580,-54.687500
9581,-54.687500
9582,-54.687500
9583,-54.687500
9584,-58.593750
9585,-58.593750
9586,-58.593750
9587,-58.593750
9588,-58.593750
9589,-58.593750
9590,-58.593750
9591,-58.593750
9592,-58.593750
9593,-62.500000
9594,-62.500000
9595,-62.500000
9596,-62.500000
9597,-62.500000
9598,-62.500000
9599,-62.500000
9600,-62.500000
9601,-62.500000
9602,-62.500000
9603,-62.500000
9604,-66.406250
9605,-66.406250
9606,-66.406250
9607,-66.406250
9608,-66.406250
9609,-66.406250
9610,-66.406250
9611,-66.406250
9612,-66.406250
9613,-66.406250
9614,-66.406250
9615,-66.406250
9616,-70.312500
9617,-70.312500
9618,-70.312500
9619,-70.312500
9620,-70.312500
9621,-70.312500
9622,-70.312500
9623,-70.312500
9624,-70.312500
9625,-70.312500
9626,-70.312500
9627,-70.312500
9628,-70.312500
9629,-74.218750
9630,-74.218750
9631,-74.218750
9632,-74.218750
9633,-74.218750
9634,-74.218750
9635,-74.218750
9636,-74.218750
9637,-74.218750
9638,-74.218750
9639,-74.218750
9640,-78.125000
9641,-74.218750
9642,-78.125000
9643,-78.125000
9644,-78.125000
9645,-78.125000
9646,-78.125000
9647,-78.125000
9648,-78.125000
9649,-78.125000
9650,-78.125000
9651,-78.125000
9652,-78.125000
9653,-78.125000
9654,-78.125000
9655,-78.125000
9656,-78.125000
9657,-78.125000
9658,-82.031250
9659,-82.031250
9660,-82.031250
9661,-82.031250
9662,-82.031250
9663,-82.031250
9664,-82.031250
9665,-82.031250
9666,-82.031250
9667,-82.031250
9668,-82.031250
9669,-82.031250
9670,-82.031250
9671,-82.031250
9672,-82.031250
9673,-82.031250
9674,-82.031250
9675,-85.937500
9676,-85.937500
9677,-85.937500
9678,-85.937500
9679,-85.937500
9680,-85.937500
9681,-82.031250
9682,-85.937500
9683,-85.937500
9684,-85.937500
9685,-85.937500
9686,-85.937500
9687,-85.937500
9688,-85.937500
9689,-85.937500
9690,-85.937500
9691,-85.937500
9692,-85.937500
9693,-85.937500
9694,-85.937500
9695,-85.937500
9696,-85.937500
9697,-85.937500
9698,-85.937500
9699,-85.937500
9700,-85.937500
9701,-85.937500
9702,-85.937500
9703,-85.937500
9704,-85.937500
9705,-85.937500
9706,-85.937500
9707,-85.937500
9708,-85.937500
9709,-85.937500
9710,-89.843750
9711,-85.937500
9712,-85.937500
9713,-85.937500
9714,-85.937500
9715,-85.937500
9716,-89.843750
9717,-89.843750
9718,-89.843750
9719,-85.937500
9720,-85.937500
9721,-85.937500
9722,-85.937500
9723,-85.937500
9724,-85.937500
9725,-89.843750
9726,-89.843750
9727,-89.843750
9728,-85.937500
9729,-85.937500
9730,-85.937500
9731,-85.937500
9732,-85.937500
9733,-85.937500
9734,-89.843750
9735,-85.937500
9736,-89.843750
9737,-85.937500
9738,-85.937500
9739,-85.937500
9740,-85.937500
9741,-85.937500
9742,-85.937500
9743,-89.843750
9744,-89.843750
9745,-85.937500
9746,-85.937500
9747,-85.937500
9748,-85.937500
9749,-85.937500
9750,-85.937500
9751,-85.937500
9752,-85.937500
9753,-85.937500
9754,-85.937500
9755,-85.937500
9756,-85.937500
9757,-85.937500
9758,-85.937500
9759,-85.937500
9760,-85.937500
9761,-85.937500
9762,-85.937500
9763,-85.937500
9764,-85.937500
9765,-85.937500
9766,-85.937500
9767,-85.937500
9768,-85.937500
9769,-85.937500
9770,-85.937500
9771,-85.937500
9772,-82.031250
9773,-85.937500
9774,-82.031250
9775,-82.031250
9776,-82.031250
9777,-82.031250
9778,-82.031250
9779,-82.031250
9780,-82.031250
9781,-82.031250
9782,-82.031250
9783,-82.031250
9784,-82.031250
9785,-82.031250
9786,-82.031250
9787,-82.031250
9788,-82.031250
9789,-82.031250
9790,-82.031250
9791,-82.031250
9792,-82.031250
9793,-82.031250
9794,-82.031250
9795,-82.031250
9796,-82.031250
9797,-82.031250
9798,-78.125000
9799,-78.125000
9800,-78.125000
9801,-78.125000
9802,-78.125000
9803,-78.125000
9804,-78.125000
9805,-78.125000
9806,-78.125000
9807,-78.125000
9808,-78.125000
9809,-78.125000
9810,-78.125000
9811,-78.125000
9812,-78.125000
9813,-74.218750
9814,-74.218750
9815,-74.218750
9816,-74.218750
9817,-74.218750
9818,-74.218750
9819,-74.218750
9820,-74.218750
9821,-74.218750
9822,-74.218750
9823,-74.218750
9824,-74.218750
9825,-70.312500
9826,-74.218750
9827,-70.312500
9828,-70.312500
9829,-70.312500
9830,-70.312500
9831,-70.312500
9832,-70.312500
9833,-70.312500
9834,-70.312500
9835,-70.312500
9836,-70.312500
9837,-66.406250
9838,-66.406250
9839,-66.406250
9840,-66.406250
9841,-66.406250
9842,-66.406250
9843,-66.406250
9844,-66.406250
9845,-66.406250
9846,-66.406250
9847,-66.406250
9848,-66.406250
9849,-62.500000
9850,-62.500000
9851,-62.500000
9852,-62.500000
9853,-62.500000
9854,-62.500000
9855,-62.500000
9856,-62.500000
9857,-62.500000
9858,-62.500000
9859,-62.500000
9860,-62.500000
9861,-58.593750
9862,-58.593750
9863,-58.593750
9864,-58.593750
9865,-58.593750
9866,-58.593750
9867,-58.593750
9868,-58.593750
9869,-54.687500
9870,-58.593750
9871,-54.687500
9872,-54.687500
9873,-54.687500
9874,-54.687500
9875,-54.687500
9876,-54.687500
9877,-54.687500
9878,-54.687500
9879,-50.781250
9880,-50.781250
9881,-50.781250
9882,-50.781250
9883,-50.781250
9884,-50.781250
9885,-50.781250
9886,-50.781250
9887,-50.781250
9888,-50.781250
9889,-50.781250
9890,-50.781250
9891,-46.875000
9892,-46.875000
9893,-46.875000
9894,-46.875000
9895,-46.875000
9896,-46.875000
9897,-46.875000
9898,-42.968750
9899,-42.968750
9900,-42.968750
9901,-42.968750
9902,-42.968750
9903,-42.968750
9904,-42.968750
9905,-42.968750
9906,-39.062500
9907,-39.062500
9908,-39.062500
9909,-39.062500
9910,-39.062500
9911,-39.062500
9912,-39.062500
9913,-39.062500
9914,-39.062500
9915,-39.062500
9916,-35.156250
9917,-35.156250
9918,-35.156250
9919,-35.156250
9920,-35.156250
9921,-35.156250
9922,-35.156250
9923,-35.156250
9924,-35.156250
9925,-31.250000
9926,-31.250000
9927,-31.250000
9928,-31.250000
9929,-31.250000
9930,-31.250000
9931,-31.250000
9932,-27.343750
9933,-27.343750
9934,-27.343750
9935,-27.343750
9936,-27.343750
9937,-27.343750
9938,-27.343750
9939,-27.343750
9940,-27.343750
9941,-23.437500
9942,-23.437500
9943,-23.437500
9944,-23.437500
9945,-23.437500
9946,-23.437500
9947,-23.437500
9948,-23.437500
9949,-19.531250
9950,-19.531250
9951,-19.531250
9952,-19.531250
9953,-19.531250
9954,-19.531250
9955,-19.531250
9956,-19.531250
9957,-19.531250
9958,-19.531250
9959,-15.625000
9960,-15.625000
9961,-15.625000
9962,-15.625000
9963,-15.625000
9964,-15.625000
9965,-15.625000
9966,-11.718750
9967,-11.718750
9968,-11.718750
9969,-11.718750
9970,-11.718750
9971,-11.718750
9972,-11.718750
9973,-7.812500
9974,-7.812500
9975,-7.812500
9976,-7.812500
9977,-7.812500
9978,-7.812500
9979,-7.812500
9980,-7.812500
9981,-3.906250
9982,-3.906250
9983,-3.906250
9984,-3.906250
9985,-3.906250
9986,-3.906250
9987,-3.906250
9988,-3.906250
9989,-3.906250
9990,-3.906250
9991,0.000000
9992,0.000000
9993,0.000000
9994,0.000000
9995,0.000000
9996,0.000000
9997,0.000000
9998,0.000000
9999,0.000000
10000,3.906250
