Channel              :,CH1
Frequency            :,1.010kHz
Period               :,0.990ms
PK-PK                :,312.5mV
Probe attenuation    :,1X
Voltage per ADC value:,0.244141mV
Time interval        :,1.00000us

index,CH1_Voltage(mV)
1,-78.125000
2,-78.125000
3,-74.218750
4,-74.218750
5,-74.218750
6,-74.218750
7,-70.312500
8,-70.312500
9,-70.312500
10,-70.312500
11,-66.406250
12,-66.406250
13,-66.406250
14,-62.500000
15,-62.500000
16,-62.500000
17,-62.500000
18,-62.500000
19,-58.593750
20,-58.593750
21,-58.593750
22,-58.593750
23,-54.687500
24,-54.687500
25,-54.687500
26,-50.781250
27,-50.781250
28,-50.781250
29,-50.781250
30,-46.875000
31,-46.875000
32,-46.875000
33,-46.875000
34,-42.968750
35,-42.968750
36,-42.968750
37,-39.062500
38,-39.062500
39,-39.062500
40,-39.062500
41,-39.062500
42,-35.156250
43,-35.156250
44,-35.156250
45,-31.250000
46,-31.250000
47,-31.250000
48,-31.250000
49,-31.250000
50,-27.343750
51,-27.343750
52,-27.343750
53,-23.437500
54,-23.437500
55,-23.437500
56,-19.531250
57,-23.437500
58,-19.531250
59,-19.531250
60,-19.531250
61,-15.625000
62,-15.625000
63,-15.625000
64,-11.718750
65,-11.718750
66,-11.718750
67,-11.718750
68,-7.812500
69,-7.812500
70,-7.812500
71,-7.812500
72,-3.906250
73,-3.906250
74,-3.906250
75,-3.906250
76,0.000000
77,0.000000
78,0.000000
79,0.000000
80,0.000000
81,3.906250
82,3.906250
83,3.906250
84,3.906250
85,7.812500
86,7.812500
87,7.812500
88,11.718750
89,11.718750
90,11.718750
91,11.718750
92,11.718750
93,15.625000
94,15.625000
95,15.625000
96,19.531250
97,19.531250
98,19.531250
99,19.531250
100,19.531250
101,23.437500
102,23.437500
103,23.437500
104,23.437500
105,27.343750
106,27.343750
107,27.343750
108,27.343750
109,31.250000
110,31.250000
111,31.250000
112,31.250000
113,31.250000
114,35.156250
115,35.156250
116,35.156250
117,39.062500
118,39.062500
119,39.062500
120,39.062500
121,39.062500
122,39.062500
123,42.968750
124,42.968750
125,42.968750
126,46.875000
127,46.875000
128,46.875000
129,46.875000
130,46.875000
131,50.781250
132,50.781250
133,50.781250
134,50.781250
135,54.687500
136,54.687500
137,54.687500
138,54.687500
139,54.687500
140,54.687500
141,58.593750
142,58.593750
143,58.593750
144,62.500000
145,62.500000
146,62.500000
147,62.500000
148,62.500000
149,62.500000
150,66.406250
151,66.406250
152,66.406250
153,66.406250
154,66.406250
155,70.312500
156,70.312500
157,70.312500
158,70.312500
159,70.312500
160,74.218750
161,74.218750
162,74.218750
163,74.218750
164,74.218750
165,78.125000
166,78.125000
167,78.125000
168,78.125000
169,78.125000
170,78.125000
171,82.031250
172,82.031250
173,82.031250
174,82.031250
175,82.031250
176,82.031250
177,85.937500
178,85.937500
179,85.937500
180,85.937500
181,85.937500
182,85.937500
183,89.843750
184,89.843750
185,89.843750
186,89.843750
187,89.843750
188,89.843750
189,93.750000
190,93.750000
191,93.750000
192,93.750000
193,93.750000
194,93.750000
195,97.656250
196,97.656250
197,97.656250
198,97.656250
199,97.656250
200,97.656250
201,97.656250
202,97.656250
203,101.562500
204,101.562500
205,101.562500
206,101.562500
207,101.562500
208,101.562500
209,101.562500
210,105.468750
211,105.468750
212,105.468750
213,105.468750
214,105.468750
215,105.468750
216,105.468750
217,105.468750
218,109.375000
219,109.375000
220,109.375000
221,109.375000
222,109.375000
223,109.375000
224,109.375000
225,113.281250
226,113.281250
227,113.281250
228,113.281250
229,113.281250
230,113.281250
231,113.281250
232,113.281250
233,113.281250
234,117.187500
235,117.187500
236,117.187500
237,117.187500
238,117.187500
239,117.187500
240,117.187500
241,117.187500
242,117.187500
243,117.187500
244,117.187500
245,117.187500
246,121.093750
247,117.187500
248,121.093750
249,121.093750
250,121.093750
251,121.093750
252,121.093750
253,121.093750
254,121.093750
255,125.000000
256,121.093750
257,125.000000
258,125.000000
259,121.093750
260,125.000000
261,125.000000
262,125.000000
263,125.000000
264,125.000000
265,125.000000
266,125.000000
267,125.000000
268,125.000000
269,125.000000
270,125.000000
271,125.000000
272,125.000000
273,125.000000
274,128.906250
275,128.906250
276,128.906250
277,128.906250
278,128.906250
279,128.906250
280,128.906250
281,128.906250
282,128.906250
283,128.906250
284,128.906250
285,128.906250
286,132.812500
287,128.906250
288,128.906250
289,128.906250
290,128.906250
291,128.906250
292,128.906250
293,132.812500
294,128.906250
295,128.906250
296,132.812500
297,132.812500
298,132.812500
299,132.812500
300,132.812500
301,128.906250
302,132.812500
303,128.906250
304,132.812500
305,132.812500
306,132.812500
307,132.812500
308,132.812500
309,132.812500
310,132.812500
311,132.812500
312,132.812500
313,132.812500
314,132.812500
315,132.812500
316,132.812500
317,132.812500
318,132.812500
319,132.812500
320,132.812500
321,132.812500
322,132.812500
323,132.812500
324,132.812500
325,132.812500
326,132.812500
327,132.812500
328,132.812500
329,132.812500
330,132.812500
331,132.812500
332,132.812500
333,128.906250
334,132.812500
335,132.812500
336,132.812500
337,132.812500
338,132.812500
339,132.812500
340,132.812500
341,128.906250
342,132.812500
343,132.812500
344,132.812500
345,128.906250
346,128.906250
347,128.906250
348,128.906250
349,128.906250
350,128.906250
351,128.906250
352,128.906250
353,128.906250
354,128.906250
355,128.906250
356,128.906250
357,128.906250
358,128.906250
359,128.906250
360,128.906250
361,128.906250
362,128.906250
363,128.906250
364,128.906250
365,128.906250
366,128.906250
367,125.000000
368,125.000000
369,125.000000
370,125.000000
371,125.000000
372,125.000000
373,125.000000
374,125.000000
375,125.000000
376,125.000000
377,125.000000
378,125.000000
379,125.000000
380,125.000000
381,121.093750
382,121.093750
383,121.093750
384,121.093750
385,121.093750
386,121.093750
387,121.093750
388,121.093750
389,121.093750
390,121.093750
391,121.093750
392,117.187500
393,121.093750
394,117.187500
395,117.187500
396,117.187500
397,117.187500
398,117.187500
399,117.187500
400,117.187500
401,117.187500
402,117.187500
403,113.281250
404,113.281250
405,113.281250
406,113.281250
407,113.281250
408,113.281250
409,113.281250
410,113.281250
411,113.281250
412,109.375000
413,109.375000
414,109.375000
415,109.375000
416,109.375000
417,109.375000
418,109.375000
419,109.375000
420,109.375000
421,105.468750
422,105.468750
423,105.468750
424,105.468750
425,105.468750
426,105.468750
427,105.468750
428,105.468750
429,101.562500
430,101.562500
431,101.562500
432,101.562500
433,101.562500
434,101.562500
435,101.562500
436,97.656250
437,97.656250
438,97.656250
439,97.656250
440,97.656250
441,97.656250
442,93.750000
443,93.750000
444,93.750000
445,93.750000
446,93.750000
447,93.750000
448,93.750000
449,89.843750
450,89.843750
451,89.843750
452,89.843750
453,89.843750
454,89.843750
455,89.843750
456,85.937500
457,85.937500
458,85.937500
459,85.937500
460,82.031250
461,82.031250
462,82.031250
463,82.031250
464,82.031250
465,82.031250
466,82.031250
467,78.125000
468,78.125000
469,78.125000
470,78.125000
471,78.125000
472,74.218750
473,74.218750
474,74.218750
475,74.218750
476,74.218750
477,70.312500
478,70.312500
479,70.312500
480,70.312500
481,70.312500
482,70.312500
483,66.406250
484,66.406250
485,66.406250
486,66.406250
487,62.500000
488,62.500000
489,62.500000
490,62.500000
491,62.500000
492,62.500000
493,58.593750
494,58.593750
495,58.593750
496,58.593750
497,54.687500
498,54.687500
499,54.687500
500,54.687500
501,54.687500
502,50.781250
503,50.781250
504,50.781250
505,50.781250
506,46.875000
507,46.875000
508,46.875000
509,46.875000
510,46.875000
511,42.968750
512,42.968750
513,42.968750
514,42.968750
515,39.062500
516,39.062500
517,39.062500
518,39.062500
519,35.156250
520,35.156250
521,35.156250
522,35.156250
523,31.250000
524,31.250000
525,31.250000
526,31.250000
527,31.250000
528,27.343750
529,27.343750
530,27.343750
531,27.343750
532,23.437500
533,23.437500
534,23.437500
535,23.437500
536,23.437500
537,19.531250
538,19.531250
539,19.531250
540,19.531250
541,15.625000
542,15.625000
543,15.625000
544,15.625000
545,11.718750
546,11.718750
547,11.718750
548,7.812500
549,7.812500
550,7.812500
551,7.812500
552,3.906250
553,3.906250
554,3.906250
555,3.906250
556,0.000000
557,0.000000
558,0.000000
559,-3.906250
560,-3.906250
561,-3.906250
562,-3.906250
563,-3.906250
564,-7.812500
565,-7.812500
566,-7.812500
567,-11.718750
568,-11.718750
569,-11.718750
570,-11.718750
571,-11.718750
572,-15.625000
573,-15.625000
574,-15.625000
575,-19.531250
576,-19.531250
577,-19.531250
578,-23.437500
579,-23.437500
580,-23.437500
581,-23.437500
582,-23.437500
583,-27.343750
584,-27.343750
585,-27.343750
586,-31.250000
587,-31.250000
588,-31.250000
589,-31.250000
590,-35.156250
591,-35.156250
592,-35.156250
593,-35.156250
594,-35.156250
595,-39.062500
596,-39.062500
597,-42.968750
598,-42.968750
599,-42.968750
600,-42.968750
601,-42.968750
602,-46.875000
603,-46.875000
604,-46.875000
605,-46.875000
606,-50.781250
607,-50.781250
608,-50.781250
609,-54.687500
610,-54.687500
611,-54.687500
612,-54.687500
613,-58.593750
614,-58.593750
615,-58.593750
616,-62.500000
617,-62.500000
618,-62.500000
619,-66.406250
620,-66.406250
621,-66.406250
622,-66.406250
623,-66.406250
624,-66.406250
625,-70.312500
626,-70.312500
627,-70.312500
628,-74.218750
629,-74.218750
630,-74.218750
631,-74.218750
632,-78.125000
633,-78.125000
634,-78.125000
635,-78.125000
636,-82.031250
637,-82.031250
638,-82.031250
639,-85.937500
640,-85.937500
641,-85.937500
642,-85.937500
643,-85.937500
644,-89.843750
645,-89.843750
646,-89.843750
647,-89.843750
648,-93.750000
649,-93.750000
650,-93.750000
651,-93.750000
652,-97.656250
653,-97.656250
654,-97.656250
655,-97.656250
656,-97.656250
657,-101.562500
658,-101.562500
659,-101.562500
660,-101.562500
661,-105.468750
662,-105.468750
663,-105.468750
664,-105.468750
665,-109.375000
666,-109.375000
667,-109.375000
668,-109.375000
669,-109.375000
670,-113.281250
671,-113.281250
672,-113.281250
673,-113.281250
674,-117.187500
675,-117.187500
676,-117.187500
677,-117.187500
678,-117.187500
679,-121.093750
680,-121.093750
681,-121.093750
682,-121.093750
683,-125.000000
684,-125.000000
685,-125.000000
686,-125.000000
687,-128.906250
688,-128.906250
689,-128.906250
690,-128.906250
691,-128.906250
692,-132.812500
693,-132.812500
694,-132.812500
695,-132.812500
696,-132.812500
697,-132.812500
698,-136.718750
699,-136.718750
700,-136.718750
701,-136.718750
702,-136.718750
703,-140.625000
704,-140.625000
705,-140.625000
706,-140.625000
707,-140.625000
708,-144.531250
709,-144.531250
710,-144.531250
711,-144.531250
712,-144.531250
713,-144.531250
714,-148.437500
715,-148.437500
716,-148.437500
717,-148.437500
718,-148.437500
719,-148.437500
720,-148.437500
721,-152.343750
722,-152.343750
723,-152.343750
724,-152.343750
725,-152.343750
726,-156.250000
727,-156.250000
728,-156.250000
729,-156.250000
730,-156.250000
731,-156.250000
732,-156.250000
733,-156.250000
734,-160.156250
735,-160.156250
736,-160.156250
737,-160.156250
738,-160.156250
739,-164.062500
740,-160.156250
741,-164.062500
742,-164.062500
743,-164.062500
744,-164.062500
745,-164.062500
746,-164.062500
747,-164.062500
748,-164.062500
749,-164.062500
750,-167.968750
751,-167.968750
752,-167.968750
753,-167.968750
754,-167.968750
755,-167.968750
756,-167.968750
757,-171.875000
758,-167.968750
759,-171.875000
760,-171.875000
761,-171.875000
762,-171.875000
763,-171.875000
764,-171.875000
765,-171.875000
766,-171.875000
767,-171.875000
768,-171.875000
769,-175.781250
770,-175.781250
771,-175.781250
772,-175.781250
773,-175.781250
774,-175.781250
775,-175.781250
776,-175.781250
777,-175.781250
778,-175.781250
779,-175.781250
780,-175.781250
781,-175.781250
782,-175.781250
783,-175.781250
784,-175.781250
785,-179.687500
786,-179.687500
787,-179.687500
788,-179.687500
789,-179.687500
790,-179.687500
791,-179.687500
792,-179.687500
793,-179.687500
794,-179.687500
795,-179.687500
796,-179.687500
797,-179.687500
798,-179.687500
799,-179.687500
800,-179.687500
801,-179.687500
802,-179.687500
803,-179.687500
804,-179.687500
805,-179.687500
806,-179.687500
807,-179.687500
808,-179.687500
809,-179.687500
810,-179.687500
811,-179.687500
812,-179.687500
813,-179.687500
814,-179.687500
815,-179.687500
816,-179.687500
817,-179.687500
818,-179.687500
819,-179.687500
820,-179.687500
821,-179.687500
822,-179.687500
823,-179.687500
824,-179.687500
825,-179.687500
826,-179.687500
827,-179.687500
828,-179.687500
829,-179.687500
830,-179.687500
831,-179.687500
832,-179.687500
833,-179.687500
834,-179.687500
835,-179.687500
836,-179.687500
837,-179.687500
838,-175.781250
839,-175.781250
840,-179.687500
841,-175.781250
842,-175.781250
843,-175.781250
844,-175.781250
845,-175.781250
846,-175.781250
847,-175.781250
848,-175.781250
849,-175.781250
850,-175.781250
851,-175.781250
852,-175.781250
853,-175.781250
854,-171.875000
855,-171.875000
856,-171.875000
857,-171.875000
858,-171.875000
859,-171.875000
860,-171.875000
861,-171.875000
862,-171.875000
863,-171.875000
864,-171.875000
865,-167.968750
866,-167.968750
867,-167.968750
868,-167.968750
869,-167.968750
870,-167.968750
871,-167.968750
872,-167.968750
873,-167.968750
874,-167.968750
875,-167.968750
876,-164.062500
877,-164.062500
878,-164.062500
879,-164.062500
880,-164.062500
881,-164.062500
882,-164.062500
883,-164.062500
884,-160.156250
885,-160.156250
886,-160.156250
887,-160.156250
888,-160.156250
889,-156.250000
890,-156.250000
891,-156.250000
892,-156.250000
893,-156.250000
894,-156.250000
895,-156.250000
896,-152.343750
897,-152.343750
898,-152.343750
899,-152.343750
900,-152.343750
901,-152.343750
902,-152.343750
903,-152.343750
904,-148.437500
905,-148.437500
906,-148.437500
907,-148.437500
908,-148.437500
909,-144.531250
910,-144.531250
911,-144.531250
912,-144.531250
913,-144.531250
914,-144.531250
915,-144.531250
916,-140.625000
917,-140.625000
918,-140.625000
919,-140.625000
920,-136.718750
921,-136.718750
922,-136.718750
923,-136.718750
924,-136.718750
925,-136.718750
926,-132.812500
927,-132.812500
928,-132.812500
929,-132.812500
930,-132.812500
931,-128.906250
932,-128.906250
933,-128.906250
934,-128.906250
935,-128.906250
936,-125.000000
937,-125.000000
938,-125.000000
939,-125.000000
940,-121.093750
941,-121.093750
942,-121.093750
943,-121.093750
944,-121.093750
945,-121.093750
946,-117.187500
947,-117.187500
948,-117.187500
949,-117.187500
950,-113.281250
951,-113.281250
952,-113.281250
953,-113.281250
954,-113.281250
955,-113.281250
956,-109.375000
957,-109.375000
958,-109.375000
959,-105.468750
960,-105.468750
961,-105.468750
962,-105.468750
963,-105.468750
964,-101.562500
965,-101.562500
966,-101.562500
967,-97.656250
968,-97.656250
969,-97.656250
970,-97.656250
971,-97.656250
972,-93.750000
973,-93.750000
974,-93.750000
975,-93.750000
976,-89.843750
977,-89.843750
978,-89.843750
979,-89.843750
980,-85.937500
981,-85.937500
982,-85.937500
983,-85.937500
984,-82.031250
985,-82.031250
986,-82.031250
987,-82.031250
988,-78.125000
989,-78.125000
990,-78.125000
991,-78.125000
992,-74.218750
993,-74.218750
994,-74.218750
995,-74.218750
996,-70.312500
997,-70.312500
998,-70.312500
999,-70.312500
1000,-66.406250
1001,-66.406250
1002,-66.406250
1003,-66.406250
1004,-62.500000
1005,-62.500000
1006,-62.500000
1007,-58.593750
1008,-58.593750
1009,-58.593750
1010,-58.593750
1011,-58.593750
1012,-54.687500
1013,-54.687500
1014,-54.687500
1015,-50.781250
1016,-50.781250
1017,-50.781250
1018,-50.781250
1019,-46.875000
1020,-46.875000
1021,-46.875000
1022,-46.875000
1023,-42.968750
1024,-42.968750
1025,-42.968750
1026,-42.968750
1027,-39.062500
1028,-39.062500
1029,-39.062500
1030,-39.062500
1031,-35.156250
1032,-35.156250
1033,-35.156250
1034,-35.156250
1035,-31.250000
1036,-31.250000
1037,-31.250000
1038,-27.343750
1039,-27.343750
1040,-27.343750
1041,-27.343750
1042,-27.343750
1043,-23.437500
1044,-23.437500
1045,-23.437500
1046,-19.531250
1047,-19.531250
1048,-19.531250
1049,-19.531250
1050,-15.625000
1051,-15.625000
1052,-15.625000
1053,-15.625000
1054,-11.718750
1055,-11.718750
1056,-11.718750
1057,-11.718750
1058,-7.812500
1059,-7.812500
1060,-7.812500
1061,-7.812500
1062,-3.906250
1063,-3.906250
1064,-3.906250
1065,0.000000
1066,0.000000
1067,0.000000
1068,0.000000
1069,3.906250
1070,3.906250
1071,3.906250
1072,7.812500
1073,7.812500
1074,7.812500
1075,7.812500
1076,7.812500
1077,11.718750
1078,11.718750
1079,11.718750
1080,11.718750
1081,15.625000
1082,11.718750
1083,15.625000
1084,15.625000
1085,19.531250
1086,19.531250
1087,19.531250
1088,19.531250
1089,19.531250
1090,23.437500
1091,23.437500
1092,23.437500
1093,23.437500
1094,27.343750
1095,27.343750
1096,27.343750
1097,27.343750
1098,31.250000
1099,31.250000
1100,31.250000
1101,31.250000
1102,31.250000
1103,35.156250
1104,35.156250
1105,35.156250
1106,39.062500
1107,39.062500
1108,39.062500
1109,39.062500
1110,39.062500
1111,42.968750
1112,42.968750
1113,42.968750
1114,42.968750
1115,42.968750
1116,46.875000
1117,46.875000
1118,46.875000
1119,46.875000
1120,50.781250
1121,50.781250
1122,50.781250
1123,50.781250
1124,50.781250
1125,50.781250
1126,54.687500
1127,54.687500
1128,54.687500
1129,54.687500
1130,58.593750
1131,58.593750
1132,58.593750
1133,58.593750
1134,58.593750
1135,62.500000
1136,62.500000
1137,62.500000
1138,62.500000
1139,66.406250
1140,66.406250
1141,66.406250
1142,66.406250
1143,66.406250
1144,66.406250
1145,70.312500
1146,70.312500
1147,70.312500
1148,70.312500
1149,70.312500
1150,70.312500
1151,74.218750
1152,74.218750
1153,74.218750
1154,74.218750
1155,78.125000
1156,78.125000
1157,78.125000
1158,78.125000
1159,78.125000
1160,82.031250
1161,82.031250
1162,82.031250
1163,82.031250
1164,82.031250
1165,82.031250
1166,85.937500
1167,85.937500
1168,85.937500
1169,85.937500
1170,85.937500
1171,85.937500
1172,85.937500
1173,89.843750
1174,89.843750
1175,89.843750
1176,89.843750
1177,89.843750
1178,93.750000
1179,93.750000
1180,93.750000
1181,93.750000
1182,93.750000
1183,93.750000
1184,93.750000
1185,97.656250
1186,97.656250
1187,97.656250
1188,97.656250
1189,97.656250
1190,97.656250
1191,97.656250
1192,101.562500
1193,101.562500
1194,101.562500
1195,101.562500
1196,101.562500
1197,101.562500
1198,101.562500
1199,105.468750
1200,105.468750
1201,105.468750
1202,105.468750
1203,105.468750
1204,105.468750
1205,105.468750
1206,109.375000
1207,109.375000
1208,109.375000
1209,109.375000
1210,109.375000
1211,109.375000
1212,109.375000
1213,109.375000
1214,109.375000
1215,113.281250
1216,113.281250
1217,113.281250
1218,113.281250
1219,113.281250
1220,113.281250
1221,113.281250
1222,113.281250
1223,113.281250
1224,117.187500
1225,117.187500
1226,117.187500
1227,117.187500
1228,117.187500
1229,117.187500
1230,117.187500
1231,117.187500
1232,117.187500
1233,117.187500
1234,117.187500
1235,121.093750
1236,121.093750
1237,121.093750
1238,121.093750
1239,121.093750
1240,121.093750
1241,121.093750
1242,121.093750
1243,121.093750
1244,121.093750
1245,121.093750
1246,121.093750
1247,125.000000
1248,125.000000
1249,125.000000
1250,125.000000
1251,125.000000
1252,125.000000
1253,125.000000
1254,125.000000
1255,125.000000
1256,125.000000
1257,125.000000
1258,125.000000
1259,125.000000
1260,125.000000
1261,125.000000
1262,128.906250
1263,128.906250
1264,128.906250
1265,128.906250
1266,128.906250
1267,128.906250
1268,128.906250
1269,128.906250
1270,128.906250
1271,128.906250
1272,128.906250
1273,128.906250
1274,128.906250
1275,128.906250
1276,128.906250
1277,128.906250
1278,128.906250
1279,128.906250
1280,128.906250
1281,128.906250
1282,128.906250
1283,128.906250
1284,128.906250
1285,128.906250
1286,132.812500
1287,132.812500
1288,132.812500
1289,132.812500
1290,132.812500
1291,132.812500
1292,132.812500
1293,128.906250
1294,132.812500
1295,132.812500
1296,132.812500
1297,132.812500
1298,132.812500
1299,132.812500
1300,132.812500
1301,132.812500
1302,132.812500
1303,132.812500
1304,132.812500
1305,132.812500
1306,132.812500
1307,132.812500
1308,132.812500
1309,132.812500
1310,132.812500
1311,132.812500
1312,132.812500
1313,132.812500
1314,132.812500
1315,132.812500
1316,132.812500
1317,132.812500
1318,132.812500
1319,132.812500
1320,132.812500
1321,132.812500
1322,132.812500
1323,132.812500
1324,132.812500
1325,132.812500
1326,132.812500
1327,132.812500
1328,132.812500
1329,132.812500
1330,132.812500
1331,128.906250
1332,132.812500
1333,132.812500
1334,132.812500
1335,128.906250
1336,132.812500
1337,132.812500
1338,128.906250
1339,128.906250
1340,128.906250
1341,128.906250
1342,128.906250
1343,128.906250
1344,128.906250
1345,128.906250
1346,128.906250
1347,128.906250
1348,128.906250
1349,128.906250
1350,128.906250
1351,128.906250
1352,128.906250
1353,128.906250
1354,128.906250
1355,128.906250
1356,128.906250
1357,128.906250
1358,128.906250
1359,125.000000
1360,125.000000
1361,125.000000
1362,125.000000
1363,125.000000
1364,125.000000
1365,125.000000
1366,125.000000
1367,125.000000
1368,125.000000
1369,125.000000
1370,125.000000
1371,121.093750
1372,121.093750
1373,121.093750
1374,121.093750
1375,121.093750
1376,121.093750
1377,121.093750
1378,121.093750
1379,121.093750
1380,121.093750
1381,121.093750
1382,117.187500
1383,117.187500
1384,117.187500
1385,117.187500
1386,117.187500
1387,117.187500
1388,117.187500
1389,117.187500
1390,117.187500
1391,117.187500
1392,117.187500
1393,113.281250
1394,113.281250
1395,113.281250
1396,113.281250
1397,113.281250
1398,113.281250
1399,113.281250
1400,113.281250
1401,113.281250
1402,113.281250
1403,109.375000
1404,109.375000
1405,109.375000
1406,109.375000
1407,109.375000
1408,109.375000
1409,109.375000
1410,109.375000
1411,105.468750
1412,105.468750
1413,105.468750
1414,105.468750
1415,105.468750
1416,105.468750
1417,105.468750
1418,105.468750
1419,101.562500
1420,101.562500
1421,101.562500
1422,101.562500
1423,101.562500
1424,101.562500
1425,101.562500
1426,97.656250
1427,97.656250
1428,97.656250
1429,97.656250
1430,97.656250
1431,97.656250
1432,97.656250
1433,93.750000
1434,93.750000
1435,93.750000
1436,93.750000
1437,93.750000
1438,93.750000
1439,89.843750
1440,89.843750
1441,89.843750
1442,89.843750
1443,89.843750
1444,89.843750
1445,85.937500
1446,85.937500
1447,85.937500
1448,85.937500
1449,85.937500
1450,82.031250
1451,82.031250
1452,82.031250
1453,82.031250
1454,82.031250
1455,82.031250
1456,82.031250
1457,78.125000
1458,78.125000
1459,78.125000
1460,78.125000
1461,78.125000
1462,74.218750
1463,74.218750
1464,74.218750
1465,74.218750
1466,74.218750
1467,74.218750
1468,70.312500
1469,70.312500
1470,70.312500
1471,70.312500
1472,66.406250
1473,66.406250
1474,66.406250
1475,66.406250
1476,66.406250
1477,66.406250
1478,62.500000
1479,62.500000
1480,62.500000
1481,62.500000
1482,58.593750
1483,58.593750
1484,58.593750
1485,58.593750
1486,58.593750
1487,54.687500
1488,54.687500
1489,54.687500
1490,54.687500
1491,54.687500
1492,50.781250
1493,50.781250
1494,50.781250
1495,50.781250
1496,50.781250
1497,46.875000
1498,46.875000
1499,46.875000
1500,42.968750
1501,42.968750
1502,42.968750
1503,42.968750
1504,42.968750
1505,39.062500
1506,39.062500
1507,39.062500
1508,39.062500
1509,35.156250
1510,35.156250
1511,35.156250
1512,35.156250
1513,31.250000
1514,31.250000
1515,31.250000
1516,31.250000
1517,27.343750
1518,27.343750
1519,27.343750
1520,27.343750
1521,23.437500
1522,23.437500
1523,23.437500
1524,23.437500
1525,23.437500
1526,23.437500
1527,19.531250
1528,19.531250
1529,19.531250
1530,15.625000
1531,15.625000
1532,15.625000
1533,15.625000
1534,11.718750
1535,11.718750
1536,11.718750
1537,7.812500
1538,7.812500
1539,7.812500
1540,7.812500
1541,3.906250
1542,3.906250
1543,3.906250
1544,3.906250
1545,3.906250
1546,0.000000
1547,0.000000
1548,0.000000
1549,-3.906250
1550,-3.906250
1551,-3.906250
1552,-7.812500
1553,-7.812500
1554,-7.812500
1555,-7.812500
1556,-7.812500
1557,-11.718750
1558,-11.718750
1559,-11.718750
1560,-11.718750
1561,-15.625000
1562,-15.625000
1563,-15.625000
1564,-15.625000
1565,-19.531250
1566,-19.531250
1567,-19.531250
1568,-19.531250
1569,-23.437500
1570,-23.437500
1571,-23.437500
1572,-27.343750
1573,-27.343750
1574,-27.343750
1575,-27.343750
1576,-31.250000
1577,-31.250000
1578,-31.250000
1579,-31.250000
1580,-35.156250
1581,-35.156250
1582,-35.156250
1583,-39.062500
1584,-39.062500
1585,-39.062500
1586,-39.062500
1587,-42.968750
1588,-42.968750
1589,-42.968750
1590,-42.968750
1591,-46.875000
1592,-46.875000
1593,-46.875000
1594,-46.875000
1595,-50.781250
1596,-50.781250
1597,-50.781250
1598,-50.781250
1599,-54.687500
1600,-54.687500
1601,-58.593750
1602,-58.593750
1603,-58.593750
1604,-58.593750
1605,-58.593750
1606,-62.500000
1607,-62.500000
1608,-62.500000
1609,-62.500000
1610,-66.406250
1611,-66.406250
1612,-66.406250
1613,-70.312500
1614,-70.312500
1615,-70.312500
1616,-70.312500
1617,-70.312500
1618,-74.218750
1619,-74.218750
1620,-74.218750
1621,-74.218750
1622,-78.125000
1623,-78.125000
1624,-78.125000
1625,-78.125000
1626,-82.031250
1627,-82.031250
1628,-82.031250
1629,-85.937500
1630,-85.937500
1631,-85.937500
1632,-85.937500
1633,-89.843750
1634,-89.843750
1635,-89.843750
1636,-89.843750
1637,-89.843750
1638,-93.750000
1639,-93.750000
1640,-93.750000
1641,-97.656250
1642,-97.656250
1643,-97.656250
1644,-97.656250
1645,-97.656250
1646,-101.562500
1647,-101.562500
1648,-101.562500
1649,-101.562500
1650,-105.468750
1651,-105.468750
1652,-105.468750
1653,-105.468750
1654,-105.468750
1655,-109.375000
1656,-109.375000
1657,-109.375000
1658,-109.375000
1659,-113.281250
1660,-113.281250
1661,-113.281250
1662,-113.281250
1663,-117.187500
1664,-117.187500
1665,-117.187500
1666,-117.187500
1667,-117.187500
1668,-121.093750
1669,-121.093750
1670,-121.093750
1671,-121.093750
1672,-125.000000
1673,-125.000000
1674,-125.000000
1675,-125.000000
1676,-125.000000
1677,-128.906250
1678,-128.906250
1679,-128.906250
1680,-128.906250
1681,-132.812500
1682,-132.812500
1683,-132.812500
1684,-132.812500
1685,-132.812500
1686,-132.812500
1687,-132.812500
1688,-136.718750
1689,-136.718750
1690,-136.718750
1691,-136.718750
1692,-140.625000
1693,-140.625000
1694,-140.625000
1695,-140.625000
1696,-140.625000
1697,-140.625000
1698,-144.531250
1699,-144.531250
1700,-144.531250
1701,-144.531250
1702,-144.531250
1703,-144.531250
1704,-148.437500
1705,-148.437500
1706,-148.437500
1707,-148.437500
1708,-148.437500
1709,-152.343750
1710,-152.343750
1711,-152.343750
1712,-152.343750
1713,-152.343750
1714,-152.343750
1715,-152.343750
1716,-152.343750
1717,-156.250000
1718,-156.250000
1719,-156.250000
1720,-156.250000
1721,-156.250000
1722,-156.250000
1723,-160.156250
1724,-156.250000
1725,-160.156250
1726,-160.156250
1727,-160.156250
1728,-160.156250
1729,-160.156250
1730,-160.156250
1731,-164.062500
1732,-164.062500
1733,-164.062500
1734,-164.062500
1735,-164.062500
1736,-164.062500
1737,-164.062500
1738,-167.968750
1739,-167.968750
1740,-167.968750
1741,-167.968750
1742,-167.968750
1743,-167.968750
1744,-167.968750
1745,-167.968750
1746,-167.968750
1747,-167.968750
1748,-167.968750
1749,-171.875000
1750,-171.875000
1751,-171.875000
1752,-171.875000
1753,-171.875000
1754,-171.875000
1755,-171.875000
1756,-171.875000
1757,-171.875000
1758,-171.875000
1759,-171.875000
1760,-171.875000
1761,-175.781250
1762,-171.875000
1763,-175.781250
1764,-175.781250
1765,-175.781250
1766,-175.781250
1767,-175.781250
1768,-175.781250
1769,-175.781250
1770,-175.781250
1771,-175.781250
1772,-175.781250
1773,-175.781250
1774,-179.687500
1775,-175.781250
1776,-175.781250
1777,-179.687500
1778,-179.687500
1779,-179.687500
1780,-179.687500
1781,-179.687500
1782,-179.687500
1783,-179.687500
1784,-179.687500
1785,-179.687500
1786,-179.687500
1787,-179.687500
1788,-179.687500
1789,-179.687500
1790,-179.687500
1791,-179.687500
1792,-179.687500
1793,-179.687500
1794,-179.687500
1795,-179.687500
1796,-179.687500
1797,-179.687500
1798,-179.687500
1799,-179.687500
1800,-179.687500
1801,-179.687500
1802,-179.687500
1803,-179.687500
1804,-179.687500
1805,-179.687500
1806,-179.687500
1807,-179.687500
1808,-179.687500
1809,-179.687500
1810,-179.687500
1811,-179.687500
1812,-179.687500
1813,-179.687500
1814,-179.687500
1815,-179.687500
1816,-179.687500
1817,-175.781250
1818,-179.687500
1819,-179.687500
1820,-179.687500
1821,-179.687500
1822,-179.687500
1823,-179.687500
1824,-179.687500
1825,-175.781250
1826,-175.781250
1827,-175.781250
1828,-175.781250
1829,-175.781250
1830,-175.781250
1831,-175.781250
1832,-175.781250
1833,-175.781250
1834,-175.781250
1835,-175.781250
1836,-175.781250
1837,-175.781250
1838,-175.781250
1839,-175.781250
1840,-175.781250
1841,-175.781250
1842,-171.875000
1843,-171.875000
1844,-171.875000
1845,-171.875000
1846,-171.875000
1847,-171.875000
1848,-171.875000
1849,-171.875000
1850,-171.875000
1851,-171.875000
1852,-171.875000
1853,-167.968750
1854,-167.968750
1855,-167.968750
1856,-167.968750
1857,-167.968750
1858,-167.968750
1859,-167.968750
1860,-167.968750
1861,-167.968750
1862,-167.968750
1863,-167.968750
1864,-164.062500
1865,-164.062500
1866,-164.062500
1867,-164.062500
1868,-164.062500
1869,-164.062500
1870,-164.062500
1871,-164.062500
1872,-160.156250
1873,-160.156250
1874,-160.156250
1875,-160.156250
1876,-160.156250
1877,-160.156250
1878,-160.156250
1879,-160.156250
1880,-156.250000
1881,-156.250000
1882,-156.250000
1883,-156.250000
1884,-156.250000
1885,-156.250000
1886,-152.343750
1887,-152.343750
1888,-152.343750
1889,-152.343750
1890,-152.343750
1891,-152.343750
1892,-152.343750
1893,-152.343750
1894,-148.437500
1895,-148.437500
1896,-148.437500
1897,-148.437500
1898,-148.437500
1899,-148.437500
1900,-144.531250
1901,-144.531250
1902,-144.531250
1903,-144.531250
1904,-140.625000
1905,-140.625000
1906,-140.625000
1907,-140.625000
1908,-140.625000
1909,-140.625000
1910,-140.625000
1911,-136.718750
1912,-136.718750
1913,-136.718750
1914,-136.718750
1915,-136.718750
1916,-132.812500
1917,-132.812500
1918,-132.812500
1919,-132.812500
1920,-132.812500
1921,-128.906250
1922,-128.906250
1923,-128.906250
1924,-128.906250
1925,-125.000000
1926,-125.000000
1927,-125.000000
1928,-125.000000
1929,-125.000000
1930,-125.000000
1931,-125.000000
1932,-121.093750
1933,-121.093750
1934,-121.093750
1935,-117.187500
1936,-117.187500
1937,-117.187500
1938,-117.187500
1939,-113.281250
1940,-113.281250
1941,-113.281250
1942,-113.281250
1943,-113.281250
1944,-109.375000
1945,-109.375000
1946,-109.375000
1947,-109.375000
1948,-109.375000
1949,-105.468750
1950,-105.468750
1951,-105.468750
1952,-105.468750
1953,-101.562500
1954,-101.562500
1955,-101.562500
1956,-97.656250
1957,-97.656250
1958,-97.656250
1959,-97.656250
1960,-97.656250
1961,-93.750000
1962,-93.750000
1963,-93.750000
1964,-93.750000
1965,-93.750000
1966,-89.843750
1967,-89.843750
1968,-89.843750
1969,-89.843750
1970,-85.937500
1971,-85.937500
1972,-85.937500
1973,-85.937500
1974,-82.031250
1975,-82.031250
1976,-82.031250
1977,-82.031250
1978,-78.125000
1979,-78.125000
1980,-78.125000
1981,-78.125000
1982,-78.125000
1983,-74.218750
1984,-74.218750
1985,-74.218750
1986,-70.312500
1987,-70.312500
1988,-70.312500
1989,-66.406250
1990,-66.406250
1991,-66.406250
1992,-66.406250
1993,-62.500000
1994,-62.500000
1995,-62.500000
1996,-62.500000
1997,-58.593750
1998,-58.593750
1999,-58.593750
2000,-58.593750
2001,-58.593750
2002,-54.687500
2003,-54.687500
2004,-54.687500
2005,-50.781250
2006,-50.781250
2007,-50.781250
2008,-50.781250
2009,-46.875000
2010,-46.875000
2011,-46.875000
2012,-46.875000
2013,-42.968750
2014,-42.968750
2015,-42.968750
2016,-42.968750
2017,-39.062500
2018,-39.062500
2019,-39.062500
2020,-39.062500
2021,-35.156250
2022,-35.156250
2023,-35.156250
2024,-35.156250
2025,-31.250000
2026,-31.250000
2027,-31.250000
2028,-27.343750
2029,-27.343750
2030,-27.343750
2031,-27.343750
2032,-27.343750
2033,-23.437500
2034,-23.437500
2035,-23.437500
2036,-19.531250
2037,-19.531250
2038,-19.531250
2039,-19.531250
2040,-15.625000
2041,-15.625000
2042,-15.625000
2043,-15.625000
2044,-11.718750
2045,-11.718750
2046,-11.718750
2047,-11.718750
2048,-7.812500
2049,-7.812500
2050,-7.812500
2051,-7.812500
2052,-3.906250
2053,-3.906250
2054,-3.906250
2055,-3.906250
2056,0.000000
2057,0.000000
2058,0.000000
2059,3.906250
2060,3.906250
2061,3.906250
2062,3.906250
2063,3.906250
2064,7.812500
2065,7.812500
2066,7.812500
2067,7.812500
2068,11.718750
2069,11.718750
2070,11.718750
2071,11.718750
2072,15.625000
2073,15.625000
2074,15.625000
2075,15.625000
2076,19.531250
2077,19.531250
2078,19.531250
2079,19.531250
2080,23.437500
2081,23.437500
2082,23.437500
2083,23.437500
2084,27.343750
2085,27.343750
2086,27.343750
2087,31.250000
2088,31.250000
2089,31.250000
2090,31.250000
2091,31.250000
2092,35.156250
2093,35.156250
2094,35.156250
2095,35.156250
2096,35.156250
2097,39.062500
2098,39.062500
2099,39.062500
2100,39.062500
2101,42.968750
2102,42.968750
2103,42.968750
2104,42.968750
2105,46.875000
2106,46.875000
2107,46.875000
2108,46.875000
2109,46.875000
2110,50.781250
2111,50.781250
2112,50.781250
2113,50.781250
2114,54.687500
2115,54.687500
2116,54.687500
2117,54.687500
2118,54.687500
2119,58.593750
2120,58.593750
2121,58.593750
2122,58.593750
2123,62.500000
2124,62.500000
2125,62.500000
2126,62.500000
2127,62.500000
2128,62.500000
2129,62.500000
2130,66.406250
2131,66.406250
2132,66.406250
2133,66.406250
2134,70.312500
2135,70.312500
2136,70.312500
2137,70.312500
2138,70.312500
2139,70.312500
2140,74.218750
2141,74.218750
2142,74.218750
2143,74.218750
2144,74.218750
2145,78.125000
2146,78.125000
2147,78.125000
2148,78.125000
2149,78.125000
2150,82.031250
2151,82.031250
2152,82.031250
2153,82.031250
2154,82.031250
2155,82.031250
2156,82.031250
2157,85.937500
2158,85.937500
2159,85.937500
2160,85.937500
2161,85.937500
2162,89.843750
2163,89.843750
2164,89.843750
2165,89.843750
2166,89.843750
2167,89.843750
2168,89.843750
2169,89.843750
2170,93.750000
2171,93.750000
2172,93.750000
2173,93.750000
2174,97.656250
2175,97.656250
2176,97.656250
2177,97.656250
2178,97.656250
2179,97.656250
2180,97.656250
2181,97.656250
2182,101.562500
2183,101.562500
2184,101.562500
2185,101.562500
2186,101.562500
2187,101.562500
2188,101.562500
2189,101.562500
2190,101.562500
2191,105.468750
2192,105.468750
2193,105.468750
2194,105.468750
2195,105.468750
2196,109.375000
2197,105.468750
2198,109.375000
2199,109.375000
2200,109.375000
2201,109.375000
2202,109.375000
2203,109.375000
2204,109.375000
2205,113.281250
2206,113.281250
2207,113.281250
2208,113.281250
2209,113.281250
2210,113.281250
2211,113.281250
2212,113.281250
2213,113.281250
2214,117.187500
2215,117.187500
2216,117.187500
2217,117.187500
2218,117.187500
2219,117.187500
2220,117.187500
2221,117.187500
2222,117.187500
2223,117.187500
2224,117.187500
2225,117.187500
2226,121.093750
2227,121.093750
2228,121.093750
2229,121.093750
2230,121.093750
2231,121.093750
2232,121.093750
2233,121.093750
2234,121.093750
2235,121.093750
2236,121.093750
2237,121.093750
2238,125.000000
2239,125.000000
2240,125.000000
2241,125.000000
2242,125.000000
2243,125.000000
2244,125.000000
2245,125.000000
2246,125.000000
2247,125.000000
2248,125.000000
2249,125.000000
2250,125.000000
2251,128.906250
2252,128.906250
2253,128.906250
2254,128.906250
2255,128.906250
2256,128.906250
2257,128.906250
2258,128.906250
2259,128.906250
2260,128.906250
2261,128.906250
2262,128.906250
2263,128.906250
2264,128.906250
2265,128.906250
2266,128.906250
2267,128.906250
2268,128.906250
2269,128.906250
2270,128.906250
2271,128.906250
2272,128.906250
2273,128.906250
2274,132.812500
2275,128.906250
2276,132.812500
2277,132.812500
2278,132.812500
2279,128.906250
2280,132.812500
2281,128.906250
2282,132.812500
2283,132.812500
2284,132.812500
2285,132.812500
2286,132.812500
2287,132.812500
2288,132.812500
2289,132.812500
2290,132.812500
2291,132.812500
2292,132.812500
2293,132.812500
2294,132.812500
2295,132.812500
2296,132.812500
2297,132.812500
2298,132.812500
2299,132.812500
2300,132.812500
2301,132.812500
2302,132.812500
2303,132.812500
2304,132.812500
2305,132.812500
2306,132.812500
2307,132.812500
2308,132.812500
2309,132.812500
2310,132.812500
2311,132.812500
2312,132.812500
2313,132.812500
2314,132.812500
2315,132.812500
2316,132.812500
2317,128.906250
2318,132.812500
2319,128.906250
2320,128.906250
2321,128.906250
2322,132.812500
2323,128.906250
2324,132.812500
2325,128.906250
2326,128.906250
2327,128.906250
2328,128.906250
2329,128.906250
2330,128.906250
2331,128.906250
2332,128.906250
2333,128.906250
2334,128.906250
2335,128.906250
2336,128.906250
2337,128.906250
2338,128.906250
2339,128.906250
2340,128.906250
2341,128.906250
2342,128.906250
2343,128.906250
2344,128.906250
2345,125.000000
2346,128.906250
2347,125.000000
2348,125.000000
2349,125.000000
2350,125.000000
2351,125.000000
2352,125.000000
2353,125.000000
2354,125.000000
2355,125.000000
2356,125.000000
2357,125.000000
2358,125.000000
2359,125.000000
2360,125.000000
2361,121.093750
2362,125.000000
2363,121.093750
2364,121.093750
2365,121.093750
2366,125.000000
2367,121.093750
2368,121.093750
2369,121.093750
2370,121.093750
2371,121.093750
2372,121.093750
2373,121.093750
2374,117.187500
2375,117.187500
2376,117.187500
2377,117.187500
2378,117.187500
2379,117.187500
2380,117.187500
2381,117.187500
2382,117.187500
2383,117.187500
2384,113.281250
2385,113.281250
2386,113.281250
2387,113.281250
2388,113.281250
2389,113.281250
2390,113.281250
2391,113.281250
2392,113.281250
2393,113.281250
2394,113.281250
2395,109.375000
2396,109.375000
2397,109.375000
2398,109.375000
2399,109.375000
2400,109.375000
2401,105.468750
2402,105.468750
2403,105.468750
2404,105.468750
2405,105.468750
2406,105.468750
2407,105.468750
2408,105.468750
2409,101.562500
2410,101.562500
2411,101.562500
2412,101.562500
2413,101.562500
2414,101.562500
2415,101.562500
2416,97.656250
2417,97.656250
2418,97.656250
2419,97.656250
2420,97.656250
2421,97.656250
2422,93.750000
2423,93.750000
2424,93.750000
2425,93.750000
2426,93.750000
2427,93.750000
2428,89.843750
2429,89.843750
2430,89.843750
2431,89.843750
2432,89.843750
2433,89.843750
2434,89.843750
2435,85.937500
2436,85.937500
2437,85.937500
2438,85.937500
2439,85.937500
2440,85.937500
2441,82.031250
2442,82.031250
2443,82.031250
2444,82.031250
2445,82.031250
2446,82.031250
2447,78.125000
2448,78.125000
2449,78.125000
2450,78.125000
2451,78.125000
2452,74.218750
2453,74.218750
2454,74.218750
2455,74.218750
2456,74.218750
2457,74.218750
2458,70.312500
2459,70.312500
2460,70.312500
2461,66.406250
2462,70.312500
2463,66.406250
2464,66.406250
2465,66.406250
2466,66.406250
2467,62.500000
2468,62.500000
2469,62.500000
2470,62.500000
2471,62.500000
2472,58.593750
2473,58.593750
2474,58.593750
2475,58.593750
2476,58.593750
2477,54.687500
2478,54.687500
2479,54.687500
2480,54.687500
2481,54.687500
2482,50.781250
2483,50.781250
2484,50.781250
2485,50.781250
2486,46.875000
2487,46.875000
2488,46.875000
2489,46.875000
2490,46.875000
2491,42.968750
2492,42.968750
2493,42.968750
2494,42.968750
2495,39.062500
2496,39.062500
2497,39.062500
2498,39.062500
2499,35.156250
2500,35.156250
2501,35.156250
2502,35.156250
2503,35.156250
2504,31.250000
2505,31.250000
2506,31.250000
2507,27.343750
2508,27.343750
2509,27.343750
2510,27.343750
2511,23.437500
2512,23.437500
2513,23.437500
2514,23.437500
2515,23.437500
2516,19.531250
2517,19.531250
2518,19.531250
2519,15.625000
2520,15.625000
2521,15.625000
2522,15.625000
2523,15.625000
2524,11.718750
2525,11.718750
2526,11.718750
2527,11.718750
2528,7.812500
2529,7.812500
2530,7.812500
2531,7.812500
2532,3.906250
2533,3.906250
2534,3.906250
2535,3.906250
2536,0.000000
2537,0.000000
2538,0.000000
2539,-3.906250
2540,-3.906250
2541,-3.906250
2542,-3.906250
2543,-7.812500
2544,-7.812500
2545,-7.812500
2546,-7.812500
2547,-11.718750
2548,-11.718750
2549,-11.718750
2550,-15.625000
2551,-15.625000
2552,-15.625000
2553,-15.625000
2554,-19.531250
2555,-19.531250
2556,-19.531250
2557,-19.531250
2558,-23.437500
2559,-23.437500
2560,-23.437500
2561,-23.437500
2562,-27.343750
2563,-27.343750
2564,-27.343750
2565,-27.343750
2566,-31.250000
2567,-31.250000
2568,-31.250000
2569,-31.250000
2570,-35.156250
2571,-35.156250
2572,-35.156250
2573,-39.062500
2574,-39.062500
2575,-39.062500
2576,-39.062500
2577,-42.968750
2578,-42.968750
2579,-42.968750
2580,-42.968750
2581,-46.875000
2582,-46.875000
2583,-46.875000
2584,-46.875000
2585,-50.781250
2586,-50.781250
2587,-50.781250
2588,-50.781250
2589,-54.687500
2590,-54.687500
2591,-54.687500
2592,-54.687500
2593,-58.593750
2594,-58.593750
2595,-58.593750
2596,-62.500000
2597,-62.500000
2598,-62.500000
2599,-66.406250
2600,-66.406250
2601,-66.406250
2602,-66.406250
2603,-66.406250
2604,-66.406250
2605,-70.312500
2606,-70.312500
2607,-70.312500
2608,-74.218750
2609,-74.218750
2610,-74.218750
2611,-74.218750
2612,-74.218750
2613,-78.125000
2614,-78.125000
2615,-78.125000
2616,-82.031250
2617,-82.031250
2618,-82.031250
2619,-82.031250
2620,-85.937500
2621,-85.937500
2622,-85.937500
2623,-85.937500
2624,-89.843750
2625,-89.843750
2626,-89.843750
2627,-93.750000
2628,-93.750000
2629,-93.750000
2630,-93.750000
2631,-93.750000
2632,-97.656250
2633,-97.656250
2634,-97.656250
2635,-97.656250
2636,-101.562500
2637,-101.562500
2638,-101.562500
2639,-101.562500
2640,-101.562500
2641,-105.468750
2642,-105.468750
2643,-105.468750
2644,-105.468750
2645,-109.375000
2646,-109.375000
2647,-109.375000
2648,-109.375000
2649,-113.281250
2650,-113.281250
2651,-113.281250
2652,-113.281250
2653,-113.281250
2654,-117.187500
2655,-117.187500
2656,-117.187500
2657,-117.187500
2658,-121.093750
2659,-121.093750
2660,-121.093750
2661,-121.093750
2662,-121.093750
2663,-125.000000
2664,-125.000000
2665,-125.000000
2666,-125.000000
2667,-128.906250
2668,-128.906250
2669,-128.906250
2670,-128.906250
2671,-128.906250
2672,-128.906250
2673,-132.812500
2674,-132.812500
2675,-132.812500
2676,-132.812500
2677,-136.718750
2678,-136.718750
2679,-136.718750
2680,-136.718750
2681,-136.718750
2682,-136.718750
2683,-140.625000
2684,-140.625000
2685,-140.625000
2686,-140.625000
2687,-144.531250
2688,-144.531250
2689,-144.531250
2690,-144.531250
2691,-144.531250
2692,-144.531250
2693,-144.531250
2694,-144.531250
2695,-148.437500
2696,-148.437500
2697,-148.437500
2698,-152.343750
2699,-148.437500
2700,-148.437500
2701,-152.343750
2702,-152.343750
2703,-152.343750
2704,-152.343750
2705,-152.343750
2706,-156.250000
2707,-156.250000
2708,-156.250000
2709,-156.250000
2710,-156.250000
2711,-156.250000
2712,-156.250000
2713,-156.250000
2714,-160.156250
2715,-160.156250
2716,-160.156250
2717,-160.156250
2718,-160.156250
2719,-160.156250
2720,-160.156250
2721,-164.062500
2722,-164.062500
2723,-164.062500
2724,-164.062500
2725,-164.062500
2726,-164.062500
2727,-164.062500
2728,-167.968750
2729,-167.968750
2730,-167.968750
2731,-167.968750
2732,-167.968750
2733,-167.968750
2734,-167.968750
2735,-167.968750
2736,-167.968750
2737,-167.968750
2738,-167.968750
2739,-171.875000
2740,-171.875000
2741,-171.875000
2742,-171.875000
2743,-171.875000
2744,-171.875000
2745,-171.875000
2746,-171.875000
2747,-171.875000
2748,-171.875000
2749,-171.875000
2750,-171.875000
2751,-175.781250
2752,-175.781250
2753,-175.781250
2754,-175.781250
2755,-175.781250
2756,-175.781250
2757,-175.781250
2758,-175.781250
2759,-175.781250
2760,-175.781250
2761,-175.781250
2762,-175.781250
2763,-175.781250
2764,-175.781250
2765,-175.781250
2766,-175.781250
2767,-179.687500
2768,-179.687500
2769,-179.687500
2770,-179.687500
2771,-179.687500
2772,-179.687500
2773,-179.687500
2774,-179.687500
2775,-179.687500
2776,-179.687500
2777,-179.687500
2778,-179.687500
2779,-179.687500
2780,-179.687500
2781,-179.687500
2782,-179.687500
2783,-179.687500
2784,-179.687500
2785,-179.687500
2786,-179.687500
2787,-179.687500
2788,-179.687500
2789,-179.687500
2790,-179.687500
2791,-179.687500
2792,-179.687500
2793,-179.687500
2794,-179.687500
2795,-179.687500
2796,-179.687500
2797,-179.687500
2798,-179.687500
2799,-179.687500
2800,-179.687500
2801,-179.687500
2802,-179.687500
2803,-179.687500
2804,-179.687500
2805,-179.687500
2806,-179.687500
2807,-179.687500
2808,-179.687500
2809,-179.687500
2810,-179.687500
2811,-179.687500
2812,-179.687500
2813,-175.781250
2814,-175.781250
2815,-179.687500
2816,-175.781250
2817,-179.687500
2818,-175.781250
2819,-179.687500
2820,-175.781250
2821,-175.781250
2822,-175.781250
2823,-175.781250
2824,-175.781250
2825,-175.781250
2826,-175.781250
2827,-175.781250
2828,-175.781250
2829,-175.781250
2830,-175.781250
2831,-175.781250
2832,-175.781250
2833,-171.875000
2834,-171.875000
2835,-171.875000
2836,-171.875000
2837,-171.875000
2838,-171.875000
2839,-171.875000
2840,-171.875000
2841,-171.875000
2842,-167.968750
2843,-171.875000
2844,-167.968750
2845,-167.968750
2846,-167.968750
2847,-167.968750
2848,-167.968750
2849,-167.968750
2850,-167.968750
2851,-167.968750
2852,-164.062500
2853,-164.062500
2854,-164.062500
2855,-164.062500
2856,-164.062500
2857,-164.062500
2858,-164.062500
2859,-164.062500
2860,-164.062500
2861,-160.156250
2862,-160.156250
2863,-160.156250
2864,-160.156250
2865,-160.156250
2866,-160.156250
2867,-160.156250
2868,-160.156250
2869,-156.250000
2870,-156.250000
2871,-156.250000
2872,-156.250000
2873,-156.250000
2874,-156.250000
2875,-152.343750
2876,-152.343750
2877,-152.343750
2878,-152.343750
2879,-152.343750
2880,-152.343750
2881,-152.343750
2882,-148.437500
2883,-148.437500
2884,-148.437500
2885,-148.437500
2886,-148.437500
2887,-148.437500
2888,-144.531250
2889,-144.531250
2890,-144.531250
2891,-144.531250
2892,-144.531250
2893,-144.531250
2894,-144.531250
2895,-140.625000
2896,-140.625000
2897,-140.625000
2898,-140.625000
2899,-140.625000
2900,-136.718750
2901,-136.718750
2902,-136.718750
2903,-136.718750
2904,-136.718750
2905,-136.718750
2906,-132.812500
2907,-132.812500
2908,-132.812500
2909,-132.812500
2910,-128.906250
2911,-128.906250
2912,-128.906250
2913,-128.906250
2914,-128.906250
2915,-125.000000
2916,-125.000000
2917,-125.000000
2918,-125.000000
2919,-125.000000
2920,-125.000000
2921,-121.093750
2922,-121.093750
2923,-121.093750
2924,-117.187500
2925,-117.187500
2926,-117.187500
2927,-117.187500
2928,-117.187500
2929,-117.187500
2930,-113.281250
2931,-113.281250
2932,-113.281250
2933,-113.281250
2934,-109.375000
2935,-109.375000
2936,-109.375000
2937,-109.375000
2938,-109.375000
2939,-105.468750
2940,-105.468750
2941,-105.468750
2942,-105.468750
2943,-101.562500
2944,-101.562500
2945,-101.562500
2946,-101.562500
2947,-101.562500
2948,-97.656250
2949,-97.656250
2950,-97.656250
2951,-97.656250
2952,-93.750000
2953,-93.750000
2954,-93.750000
2955,-89.843750
2956,-89.843750
2957,-89.843750
2958,-89.843750
2959,-89.843750
2960,-85.937500
2961,-85.937500
2962,-85.937500
2963,-85.937500
2964,-85.937500
2965,-82.031250
2966,-82.031250
2967,-82.031250
2968,-78.125000
2969,-78.125000
2970,-78.125000
2971,-78.125000
2972,-74.218750
2973,-74.218750
2974,-74.218750
2975,-74.218750
2976,-70.312500
2977,-70.312500
2978,-70.312500
2979,-70.312500
2980,-66.406250
2981,-66.406250
2982,-66.406250
2983,-62.500000
2984,-62.500000
2985,-62.500000
2986,-62.500000
2987,-62.500000
2988,-58.593750
2989,-58.593750
2990,-58.593750
2991,-54.687500
2992,-54.687500
2993,-54.687500
2994,-54.687500
2995,-54.687500
2996,-50.781250
2997,-50.781250
2998,-50.781250
2999,-46.875000
3000,-46.875000
3001,-46.875000
3002,-46.875000
3003,-42.968750
3004,-42.968750
3005,-42.968750
3006,-42.968750
3007,-39.062500
3008,-39.062500
3009,-39.062500
3010,-35.156250
3011,-39.062500
3012,-35.156250
3013,-35.156250
3014,-31.250000
3015,-31.250000
3016,-31.250000
3017,-31.250000
3018,-27.343750
3019,-27.343750
3020,-27.343750
3021,-27.343750
3022,-23.437500
3023,-23.437500
3024,-23.437500
3025,-23.437500
3026,-19.531250
3027,-19.531250
3028,-19.531250
3029,-19.531250
3030,-15.625000
3031,-15.625000
3032,-15.625000
3033,-11.718750
3034,-11.718750
3035,-11.718750
3036,-11.718750
3037,-11.718750
3038,-7.812500
3039,-7.812500
3040,-7.812500
3041,-3.906250
3042,-3.906250
3043,-3.906250
3044,-3.906250
3045,-3.906250
3046,0.000000
3047,0.000000
3048,0.000000
3049,0.000000
3050,3.906250
3051,3.906250
3052,3.906250
3053,3.906250
3054,7.812500
3055,7.812500
3056,7.812500
3057,7.812500
3058,11.718750
3059,11.718750
3060,11.718750
3061,11.718750
3062,15.625000
3063,15.625000
3064,15.625000
3065,15.625000
3066,19.531250
3067,19.531250
3068,19.531250
3069,19.531250
3070,23.437500
3071,23.437500
3072,23.437500
3073,23.437500
3074,27.343750
3075,27.343750
3076,27.343750
3077,27.343750
3078,27.343750
3079,31.250000
3080,31.250000
3081,31.250000
3082,35.156250
3083,35.156250
3084,35.156250
3085,35.156250
3086,35.156250
3087,39.062500
3088,39.062500
3089,39.062500
3090,39.062500
3091,39.062500
3092,42.968750
3093,42.968750
3094,42.968750
3095,42.968750
3096,42.968750
3097,46.875000
3098,46.875000
3099,46.875000
3100,50.781250
3101,50.781250
3102,50.781250
3103,50.781250
3104,54.687500
3105,54.687500
3106,54.687500
3107,54.687500
3108,54.687500
3109,54.687500
3110,58.593750
3111,58.593750
3112,58.593750
3113,58.593750
3114,62.500000
3115,62.500000
3116,62.500000
3117,62.500000
3118,62.500000
3119,66.406250
3120,66.406250
3121,66.406250
3122,66.406250
3123,66.406250
3124,70.312500
3125,70.312500
3126,70.312500
3127,70.312500
3128,70.312500
3129,70.312500
3130,74.218750
3131,74.218750
3132,74.218750
3133,74.218750
3134,74.218750
3135,78.125000
3136,78.125000
3137,78.125000
3138,78.125000
3139,78.125000
3140,82.031250
3141,82.031250
3142,82.031250
3143,82.031250
3144,82.031250
3145,82.031250
3146,82.031250
3147,85.937500
3148,85.937500
3149,85.937500
3150,85.937500
3151,85.937500
3152,89.843750
3153,89.843750
3154,89.843750
3155,89.843750
3156,89.843750
3157,89.843750
3158,93.750000
3159,93.750000
3160,93.750000
3161,93.750000
3162,93.750000
3163,93.750000
3164,93.750000
3165,97.656250
3166,97.656250
3167,97.656250
3168,97.656250
3169,97.656250
3170,97.656250
3171,97.656250
3172,101.562500
3173,101.562500
3174,101.562500
3175,101.562500
3176,101.562500
3177,101.562500
3178,101.562500
3179,101.562500
3180,105.468750
3181,105.468750
3182,105.468750
3183,105.468750
3184,105.468750
3185,105.468750
3186,105.468750
3187,105.468750
3188,109.375000
3189,109.375000
3190,109.375000
3191,109.375000
3192,109.375000
3193,109.375000
3194,113.281250
3195,113.281250
3196,113.281250
3197,113.281250
3198,113.281250
3199,113.281250
3200,113.281250
3201,113.281250
3202,113.281250
3203,113.281250
3204,113.281250
3205,117.187500
3206,117.187500
3207,117.187500
3208,117.187500
3209,117.187500
3210,117.187500
3211,117.187500
3212,117.187500
3213,117.187500
3214,117.187500
3215,121.093750
3216,121.093750
3217,121.093750
3218,121.093750
3219,121.093750
3220,121.093750
3221,121.093750
3222,121.093750
3223,121.093750
3224,121.093750
3225,125.000000
3226,121.093750
3227,121.093750
3228,125.000000
3229,125.000000
3230,125.000000
3231,125.000000
3232,125.000000
3233,125.000000
3234,125.000000
3235,125.000000
3236,125.000000
3237,125.000000
3238,125.000000
3239,125.000000
3240,125.000000
3241,125.000000
3242,128.906250
3243,128.906250
3244,128.906250
3245,128.906250
3246,128.906250
3247,128.906250
3248,128.906250
3249,128.906250
3250,128.906250
3251,128.906250
3252,128.906250
3253,128.906250
3254,128.906250
3255,128.906250
3256,128.906250
3257,128.906250
3258,128.906250
3259,128.906250
3260,128.906250
3261,128.906250
3262,132.812500
3263,128.906250
3264,132.812500
3265,132.812500
3266,132.812500
3267,132.812500
3268,132.812500
3269,132.812500
3270,132.812500
3271,132.812500
3272,132.812500
3273,132.812500
3274,132.812500
3275,132.812500
3276,132.812500
3277,132.812500
3278,132.812500
3279,132.812500
3280,132.812500
3281,132.812500
3282,132.812500
3283,132.812500
3284,132.812500
3285,132.812500
3286,132.812500
3287,132.812500
3288,132.812500
3289,132.812500
3290,132.812500
3291,132.812500
3292,132.812500
3293,128.906250
3294,132.812500
3295,132.812500
3296,128.906250
3297,132.812500
3298,132.812500
3299,132.812500
3300,132.812500
3301,132.812500
3302,132.812500
3303,132.812500
3304,132.812500
3305,132.812500
3306,132.812500
3307,132.812500
3308,132.812500
3309,132.812500
3310,132.812500
3311,132.812500
3312,128.906250
3313,128.906250
3314,132.812500
3315,128.906250
3316,128.906250
3317,128.906250
3318,128.906250
3319,128.906250
3320,132.812500
3321,128.906250
3322,128.906250
3323,128.906250
3324,128.906250
3325,128.906250
3326,128.906250
3327,128.906250
3328,128.906250
3329,128.906250
3330,128.906250
3331,128.906250
3332,128.906250
3333,128.906250
3334,128.906250
3335,125.000000
3336,128.906250
3337,125.000000
3338,125.000000
3339,125.000000
3340,125.000000
3341,125.000000
3342,125.000000
3343,125.000000
3344,125.000000
3345,125.000000
3346,125.000000
3347,125.000000
3348,125.000000
3349,125.000000
3350,125.000000
3351,121.093750
3352,121.093750
3353,121.093750
3354,121.093750
3355,121.093750
3356,121.093750
3357,121.093750
3358,121.093750
3359,121.093750
3360,121.093750
3361,121.093750
3362,121.093750
3363,121.093750
3364,113.281250
3365,117.187500
3366,117.187500
3367,117.187500
3368,117.187500
3369,117.187500
3370,117.187500
3371,117.187500
3372,117.187500
3373,117.187500
3374,113.281250
3375,113.281250
3376,113.281250
3377,113.281250
3378,113.281250
3379,113.281250
3380,113.281250
3381,113.281250
3382,113.281250
3383,109.375000
3384,109.375000
3385,109.375000
3386,109.375000
3387,109.375000
3388,109.375000
3389,109.375000
3390,109.375000
3391,109.375000
3392,105.468750
3393,105.468750
3394,105.468750
3395,105.468750
3396,105.468750
3397,105.468750
3398,101.562500
3399,101.562500
3400,101.562500
3401,101.562500
3402,101.562500
3403,101.562500
3404,101.562500
3405,101.562500
3406,97.656250
3407,97.656250
3408,97.656250
3409,97.656250
3410,97.656250
3411,97.656250
3412,97.656250
3413,93.750000
3414,97.656250
3415,93.750000
3416,93.750000
3417,93.750000
3418,89.843750
3419,89.843750
3420,89.843750
3421,89.843750
3422,89.843750
3423,89.843750
3424,89.843750
3425,89.843750
3426,85.937500
3427,85.937500
3428,85.937500
3429,85.937500
3430,82.031250
3431,82.031250
3432,82.031250
3433,82.031250
3434,82.031250
3435,82.031250
3436,78.125000
3437,78.125000
3438,78.125000
3439,78.125000
3440,78.125000
3441,78.125000
3442,78.125000
3443,74.218750
3444,74.218750
3445,74.218750
3446,74.218750
3447,70.312500
3448,70.312500
3449,70.312500
3450,70.312500
3451,70.312500
3452,70.312500
3453,66.406250
3454,66.406250
3455,66.406250
3456,66.406250
3457,62.500000
3458,62.500000
3459,62.500000
3460,62.500000
3461,58.593750
3462,58.593750
3463,58.593750
3464,58.593750
3465,58.593750
3466,58.593750
3467,54.687500
3468,54.687500
3469,54.687500
3470,54.687500
3471,54.687500
3472,50.781250
3473,50.781250
3474,50.781250
3475,50.781250
3476,46.875000
3477,46.875000
3478,46.875000
3479,46.875000
3480,42.968750
3481,42.968750
3482,42.968750
3483,42.968750
3484,39.062500
3485,39.062500
3486,39.062500
3487,39.062500
3488,39.062500
3489,35.156250
3490,35.156250
3491,35.156250
3492,35.156250
3493,31.250000
3494,31.250000
3495,31.250000
3496,31.250000
3497,27.343750
3498,27.343750
3499,27.343750
3500,27.343750
3501,27.343750
3502,23.437500
3503,23.437500
3504,23.437500
3505,23.437500
3506,19.531250
3507,19.531250
3508,19.531250
3509,19.531250
3510,15.625000
3511,15.625000
3512,15.625000
3513,15.625000
3514,15.625000
3515,11.718750
3516,11.718750
3517,7.812500
3518,7.812500
3519,7.812500
3520,7.812500
3521,3.906250
3522,3.906250
3523,3.906250
3524,3.906250
3525,0.000000
3526,0.000000
3527,0.000000
3528,0.000000
3529,-3.906250
3530,-3.906250
3531,-3.906250
3532,-3.906250
3533,-7.812500
3534,-7.812500
3535,-7.812500
3536,-7.812500
3537,-11.718750
3538,-11.718750
3539,-11.718750
3540,-11.718750
3541,-15.625000
3542,-15.625000
3543,-15.625000
3544,-15.625000
3545,-19.531250
3546,-19.531250
3547,-19.531250
3548,-23.437500
3549,-23.437500
3550,-23.437500
3551,-23.437500
3552,-27.343750
3553,-27.343750
3554,-27.343750
3555,-27.343750
3556,-31.250000
3557,-31.250000
3558,-31.250000
3559,-35.156250
3560,-35.156250
3561,-35.156250
3562,-35.156250
3563,-39.062500
3564,-39.062500
3565,-39.062500
3566,-39.062500
3567,-42.968750
3568,-42.968750
3569,-42.968750
3570,-42.968750
3571,-46.875000
3572,-46.875000
3573,-46.875000
3574,-46.875000
3575,-50.781250
3576,-50.781250
3577,-50.781250
3578,-54.687500
3579,-54.687500
3580,-54.687500
3581,-54.687500
3582,-54.687500
3583,-58.593750
3584,-58.593750
3585,-58.593750
3586,-62.500000
3587,-62.500000
3588,-62.500000
3589,-62.500000
3590,-66.406250
3591,-66.406250
3592,-66.406250
3593,-66.406250
3594,-70.312500
3595,-70.312500
3596,-70.312500
3597,-74.218750
3598,-74.218750
3599,-74.218750
3600,-74.218750
3601,-74.218750
3602,-78.125000
3603,-78.125000
3604,-78.125000
3605,-78.125000
3606,-82.031250
3607,-82.031250
3608,-82.031250
3609,-85.937500
3610,-85.937500
3611,-85.937500
3612,-85.937500
3613,-85.937500
3614,-89.843750
3615,-89.843750
3616,-89.843750
3617,-93.750000
3618,-93.750000
3619,-93.750000
3620,-93.750000
3621,-93.750000
3622,-93.750000
3623,-97.656250
3624,-97.656250
3625,-97.656250
3626,-101.562500
3627,-101.562500
3628,-101.562500
3629,-101.562500
3630,-105.468750
3631,-105.468750
3632,-105.468750
3633,-105.468750
3634,-105.468750
3635,-109.375000
3636,-109.375000
3637,-109.375000
3638,-109.375000
3639,-113.281250
3640,-113.281250
3641,-113.281250
3642,-113.281250
3643,-117.187500
3644,-117.187500
3645,-117.187500
3646,-117.187500
3647,-117.187500
3648,-121.093750
3649,-121.093750
3650,-121.093750
3651,-121.093750
3652,-121.093750
3653,-125.000000
3654,-125.000000
3655,-125.000000
3656,-125.000000
3657,-125.000000
3658,-128.906250
3659,-128.906250
3660,-128.906250
3661,-128.906250
3662,-128.906250
3663,-132.812500
3664,-132.812500
3665,-132.812500
3666,-132.812500
3667,-136.718750
3668,-136.718750
3669,-136.718750
3670,-136.718750
3671,-136.718750
3672,-136.718750
3673,-136.718750
3674,-140.625000
3675,-140.625000
3676,-140.625000
3677,-140.625000
3678,-140.625000
3679,-144.531250
3680,-144.531250
3681,-144.531250
3682,-144.531250
3683,-144.531250
3684,-148.437500
3685,-148.437500
3686,-148.437500
3687,-148.437500
3688,-148.437500
3689,-148.437500
3690,-148.437500
3691,-152.343750
3692,-152.343750
3693,-152.343750
3694,-152.343750
3695,-152.343750
3696,-152.343750
3697,-156.250000
3698,-156.250000
3699,-156.250000
3700,-156.250000
3701,-156.250000
3702,-156.250000
3703,-160.156250
3704,-160.156250
3705,-160.156250
3706,-160.156250
3707,-160.156250
3708,-160.156250
3709,-164.062500
3710,-160.156250
3711,-164.062500
3712,-164.062500
3713,-164.062500
3714,-164.062500
3715,-164.062500
3716,-164.062500
3717,-164.062500
3718,-167.968750
3719,-167.968750
3720,-167.968750
3721,-167.968750
3722,-167.968750
3723,-167.968750
3724,-167.968750
3725,-167.968750
3726,-167.968750
3727,-171.875000
3728,-171.875000
3729,-171.875000
3730,-171.875000
3731,-171.875000
3732,-171.875000
3733,-171.875000
3734,-171.875000
3735,-171.875000
3736,-171.875000
3737,-171.875000
3738,-175.781250
3739,-171.875000
3740,-171.875000
3741,-171.875000
3742,-175.781250
3743,-175.781250
3744,-175.781250
3745,-175.781250
3746,-175.781250
3747,-175.781250
3748,-175.781250
3749,-175.781250
3750,-175.781250
3751,-175.781250
3752,-175.781250
3753,-175.781250
3754,-179.687500
3755,-175.781250
3756,-179.687500
3757,-179.687500
3758,-179.687500
3759,-179.687500
3760,-179.687500
3761,-179.687500
3762,-179.687500
3763,-179.687500
3764,-179.687500
3765,-179.687500
3766,-179.687500
3767,-179.687500
3768,-179.687500
3769,-179.687500
3770,-179.687500
3771,-179.687500
3772,-179.687500
3773,-179.687500
3774,-179.687500
3775,-179.687500
3776,-179.687500
3777,-179.687500
3778,-179.687500
3779,-179.687500
3780,-179.687500
3781,-179.687500
3782,-179.687500
3783,-175.781250
3784,-179.687500
3785,-179.687500
3786,-179.687500
3787,-179.687500
3788,-179.687500
3789,-179.687500
3790,-179.687500
3791,-179.687500
3792,-179.687500
3793,-179.687500
3794,-179.687500
3795,-179.687500
3796,-179.687500
3797,-179.687500
3798,-179.687500
3799,-179.687500
3800,-179.687500
3801,-179.687500
3802,-179.687500
3803,-179.687500
3804,-175.781250
3805,-175.781250
3806,-175.781250
3807,-179.687500
3808,-179.687500
3809,-175.781250
3810,-175.781250
3811,-175.781250
3812,-175.781250
3813,-175.781250
3814,-175.781250
3815,-175.781250
3816,-175.781250
3817,-175.781250
3818,-175.781250
3819,-175.781250
3820,-175.781250
3821,-175.781250
3822,-171.875000
3823,-171.875000
3824,-171.875000
3825,-171.875000
3826,-171.875000
3827,-171.875000
3828,-171.875000
3829,-171.875000
3830,-171.875000
3831,-171.875000
3832,-171.875000
3833,-171.875000
3834,-171.875000
3835,-167.968750
3836,-167.968750
3837,-167.968750
3838,-167.968750
3839,-167.968750
3840,-167.968750
3841,-167.968750
3842,-167.968750
3843,-167.968750
3844,-167.968750
3845,-167.968750
3846,-164.062500
3847,-164.062500
3848,-164.062500
3849,-164.062500
3850,-164.062500
3851,-164.062500
3852,-164.062500
3853,-160.156250
3854,-160.156250
3855,-160.156250
3856,-160.156250
3857,-160.156250
3858,-160.156250
3859,-160.156250
3860,-160.156250
3861,-156.250000
3862,-156.250000
3863,-156.250000
3864,-156.250000
3865,-156.250000
3866,-156.250000
3867,-156.250000
3868,-152.343750
3869,-152.343750
3870,-152.343750
3871,-152.343750
3872,-152.343750
3873,-148.437500
3874,-148.437500
3875,-148.437500
3876,-148.437500
3877,-148.437500
3878,-148.437500
3879,-144.531250
3880,-144.531250
3881,-144.531250
3882,-144.531250
3883,-144.531250
3884,-144.531250
3885,-140.625000
3886,-140.625000
3887,-140.625000
3888,-140.625000
3889,-140.625000
3890,-140.625000
3891,-136.718750
3892,-136.718750
3893,-136.718750
3894,-136.718750
3895,-132.812500
3896,-132.812500
3897,-132.812500
3898,-132.812500
3899,-132.812500
3900,-132.812500
3901,-128.906250
3902,-128.906250
3903,-128.906250
3904,-128.906250
3905,-125.000000
3906,-125.000000
3907,-125.000000
3908,-125.000000
3909,-125.000000
3910,-121.093750
3911,-121.093750
3912,-121.093750
3913,-121.093750
3914,-121.093750
3915,-121.093750
3916,-117.187500
3917,-117.187500
3918,-117.187500
3919,-117.187500
3920,-113.281250
3921,-113.281250
3922,-113.281250
3923,-113.281250
3924,-109.375000
3925,-109.375000
3926,-109.375000
3927,-109.375000
3928,-109.375000
3929,-105.468750
3930,-105.468750
3931,-105.468750
3932,-105.468750
3933,-101.562500
3934,-101.562500
3935,-101.562500
3936,-101.562500
3937,-101.562500
3938,-97.656250
3939,-97.656250
3940,-97.656250
3941,-93.750000
3942,-93.750000
3943,-93.750000
3944,-93.750000
3945,-93.750000
3946,-89.843750
3947,-89.843750
3948,-89.843750
3949,-85.937500
3950,-85.937500
3951,-85.937500
3952,-85.937500
3953,-85.937500
3954,-82.031250
3955,-82.031250
3956,-82.031250
3957,-82.031250
3958,-82.031250
3959,-78.125000
3960,-78.125000
3961,-74.218750
3962,-74.218750
3963,-74.218750
3964,-74.218750
3965,-74.218750
3966,-70.312500
3967,-70.312500
3968,-70.312500
3969,-70.312500
3970,-66.406250
3971,-66.406250
3972,-66.406250
3973,-66.406250
3974,-62.500000
3975,-62.500000
3976,-62.500000
3977,-62.500000
3978,-58.593750
3979,-58.593750
3980,-58.593750
3981,-54.687500
3982,-54.687500
3983,-54.687500
3984,-54.687500
3985,-50.781250
3986,-50.781250
3987,-50.781250
3988,-50.781250
3989,-46.875000
3990,-46.875000
3991,-46.875000
3992,-46.875000
3993,-42.968750
3994,-42.968750
3995,-42.968750
3996,-42.968750
3997,-39.062500
3998,-39.062500
3999,-39.062500
4000,-39.062500
4001,-35.156250
4002,-35.156250
4003,-35.156250
4004,-31.250000
4005,-31.250000
4006,-31.250000
4007,-31.250000
4008,-27.343750
4009,-27.343750
4010,-27.343750
4011,-27.343750
4012,-23.437500
4013,-23.437500
4014,-23.437500
4015,-23.437500
4016,-19.531250
4017,-19.531250
4018,-19.531250
4019,-19.531250
4020,-15.625000
4021,-15.625000
4022,-15.625000
4023,-11.718750
4024,-11.718750
4025,-11.718750
4026,-11.718750
4027,-11.718750
4028,-7.812500
4029,-7.812500
4030,-7.812500
4031,-3.906250
4032,-3.906250
4033,-3.906250
4034,-3.906250
4035,-3.906250
4036,0.000000
4037,0.000000
4038,0.000000
4039,0.000000
4040,3.906250
4041,3.906250
4042,3.906250
4043,7.812500
4044,7.812500
4045,7.812500
4046,7.812500
4047,7.812500
4048,11.718750
4049,11.718750
4050,11.718750
4051,15.625000
4052,15.625000
4053,15.625000
4054,15.625000
4055,15.625000
4056,19.531250
4057,19.531250
4058,19.531250
4059,19.531250
4060,23.437500
4061,23.437500
4062,23.437500
4063,27.343750
4064,27.343750
4065,27.343750
4066,27.343750
4067,27.343750
4068,31.250000
4069,31.250000
4070,31.250000
4071,35.156250
4072,35.156250
4073,35.156250
4074,35.156250
4075,35.156250
4076,35.156250
4077,35.156250
4078,39.062500
4079,39.062500
4080,42.968750
4081,42.968750
4082,42.968750
4083,42.968750
4084,42.968750
4085,46.875000
4086,46.875000
4087,46.875000
4088,46.875000
4089,46.875000
4090,50.781250
4091,50.781250
4092,50.781250
4093,50.781250
4094,50.781250
4095,54.687500
4096,54.687500
4097,54.687500
4098,54.687500
4099,54.687500
4100,58.593750
4101,58.593750
4102,58.593750
4103,58.593750
4104,62.500000
4105,62.500000
4106,62.500000
4107,62.500000
4108,62.500000
4109,66.406250
4110,66.406250
4111,66.406250
4112,66.406250
4113,66.406250
4114,70.312500
4115,70.312500
4116,70.312500
4117,70.312500
4118,70.312500
4119,70.312500
4120,74.218750
4121,74.218750
4122,74.218750
4123,74.218750
4124,78.125000
4125,78.125000
4126,78.125000
4127,78.125000
4128,78.125000
4129,78.125000
4130,82.031250
4131,82.031250
4132,82.031250
4133,82.031250
4134,82.031250
4135,82.031250
4136,85.937500
4137,85.937500
4138,85.937500
4139,85.937500
4140,85.937500
4141,85.937500
4142,89.843750
4143,89.843750
4144,89.843750
4145,89.843750
4146,89.843750
4147,89.843750
4148,93.750000
4149,93.750000
4150,89.843750
4151,97.656250
4152,93.750000
4153,93.750000
4154,97.656250
4155,97.656250
4156,97.656250
4157,97.656250
4158,97.656250
4159,97.656250
4160,97.656250
4161,101.562500
4162,101.562500
4163,101.562500
4164,101.562500
4165,101.562500
4166,101.562500
4167,101.562500
4168,105.468750
4169,105.468750
4170,105.468750
4171,105.468750
4172,105.468750
4173,105.468750
4174,105.468750
4175,105.468750
4176,105.468750
4177,109.375000
4178,109.375000
4179,109.375000
4180,109.375000
4181,109.375000
4182,109.375000
4183,109.375000
4184,113.281250
4185,113.281250
4186,113.281250
4187,113.281250
4188,113.281250
4189,113.281250
4190,113.281250
4191,113.281250
4192,117.187500
4193,117.187500
4194,117.187500
4195,117.187500
4196,117.187500
4197,117.187500
4198,117.187500
4199,117.187500
4200,117.187500
4201,117.187500
4202,121.093750
4203,117.187500
4204,121.093750
4205,121.093750
4206,121.093750
4207,121.093750
4208,121.093750
4209,121.093750
4210,121.093750
4211,121.093750
4212,121.093750
4213,121.093750
4214,121.093750
4215,121.093750
4216,121.093750
4217,121.093750
4218,125.000000
4219,125.000000
4220,125.000000
4221,125.000000
4222,125.000000
4223,125.000000
4224,125.000000
4225,125.000000
4226,125.000000
4227,125.000000
4228,125.000000
4229,125.000000
4230,125.000000
4231,125.000000
4232,128.906250
4233,128.906250
4234,128.906250
4235,128.906250
4236,128.906250
4237,128.906250
4238,128.906250
4239,128.906250
4240,128.906250
4241,128.906250
4242,128.906250
4243,128.906250
4244,128.906250
4245,128.906250
4246,128.906250
4247,128.906250
4248,128.906250
4249,128.906250
4250,128.906250
4251,132.812500
4252,132.812500
4253,128.906250
4254,132.812500
4255,128.906250
4256,132.812500
4257,128.906250
4258,132.812500
4259,132.812500
4260,132.812500
4261,132.812500
4262,132.812500
4263,132.812500
4264,132.812500
4265,132.812500
4266,132.812500
4267,128.906250
4268,132.812500
4269,132.812500
4270,132.812500
4271,132.812500
4272,132.812500
4273,132.812500
4274,132.812500
4275,132.812500
4276,132.812500
4277,132.812500
4278,132.812500
4279,132.812500
4280,132.812500
4281,132.812500
4282,132.812500
4283,132.812500
4284,132.812500
4285,132.812500
4286,132.812500
4287,132.812500
4288,132.812500
4289,132.812500
4290,132.812500
4291,132.812500
4292,132.812500
4293,132.812500
4294,132.812500
4295,132.812500
4296,132.812500
4297,128.906250
4298,132.812500
4299,132.812500
4300,132.812500
4301,132.812500
4302,132.812500
4303,128.906250
4304,128.906250
4305,128.906250
4306,132.812500
4307,128.906250
4308,132.812500
4309,128.906250
4310,128.906250
4311,128.906250
4312,128.906250
4313,128.906250
4314,128.906250
4315,128.906250
4316,128.906250
4317,128.906250
4318,128.906250
4319,128.906250
4320,128.906250
4321,128.906250
4322,128.906250
4323,128.906250
4324,128.906250
4325,128.906250
4326,128.906250
4327,125.000000
4328,125.000000
4329,125.000000
4330,125.000000
4331,125.000000
4332,125.000000
4333,125.000000
4334,125.000000
4335,125.000000
4336,125.000000
4337,125.000000
4338,125.000000
4339,125.000000
4340,125.000000
4341,125.000000
4342,121.093750
4343,121.093750
4344,121.093750
4345,121.093750
4346,121.093750
4347,121.093750
4348,121.093750
4349,121.093750
4350,121.093750
4351,121.093750
4352,121.093750
4353,121.093750
4354,121.093750
4355,117.187500
4356,117.187500
4357,117.187500
4358,117.187500
4359,117.187500
4360,117.187500
4361,117.187500
4362,117.187500
4363,113.281250
4364,113.281250
4365,113.281250
4366,113.281250
4367,113.281250
4368,113.281250
4369,113.281250
4370,113.281250
4371,113.281250
4372,113.281250
4373,109.375000
4374,109.375000
4375,109.375000
4376,109.375000
4377,109.375000
4378,109.375000
4379,109.375000
4380,109.375000
4381,105.468750
4382,105.468750
4383,105.468750
4384,105.468750
4385,105.468750
4386,105.468750
4387,105.468750
4388,105.468750
4389,101.562500
4390,101.562500
4391,101.562500
4392,101.562500
4393,101.562500
4394,101.562500
4395,97.656250
4396,97.656250
4397,97.656250
4398,97.656250
4399,97.656250
4400,97.656250
4401,97.656250
4402,93.750000
4403,93.750000
4404,93.750000
4405,93.750000
4406,93.750000
4407,93.750000
4408,93.750000
4409,89.843750
4410,89.843750
4411,89.843750
4412,89.843750
4413,89.843750
4414,89.843750
4415,85.937500
4416,85.937500
4417,85.937500
4418,85.937500
4419,85.937500
4420,85.937500
4421,82.031250
4422,82.031250
4423,82.031250
4424,82.031250
4425,82.031250
4426,82.031250
4427,78.125000
4428,78.125000
4429,78.125000
4430,78.125000
4431,78.125000
4432,74.218750
4433,74.218750
4434,74.218750
4435,74.218750
4436,74.218750
4437,70.312500
4438,70.312500
4439,70.312500
4440,70.312500
4441,70.312500
4442,70.312500
4443,66.406250
4444,66.406250
4445,66.406250
4446,66.406250
4447,62.500000
4448,62.500000
4449,62.500000
4450,62.500000
4451,62.500000
4452,62.500000
4453,58.593750
4454,58.593750
4455,58.593750
4456,58.593750
4457,54.687500
4458,54.687500
4459,54.687500
4460,54.687500
4461,50.781250
4462,50.781250
4463,50.781250
4464,50.781250
4465,50.781250
4466,46.875000
4467,46.875000
4468,46.875000
4469,46.875000
4470,46.875000
4471,42.968750
4472,42.968750
4473,42.968750
4474,39.062500
4475,39.062500
4476,39.062500
4477,39.062500
4478,35.156250
4479,35.156250
4480,35.156250
4481,35.156250
4482,35.156250
4483,35.156250
4484,31.250000
4485,31.250000
4486,31.250000
4487,27.343750
4488,27.343750
4489,27.343750
4490,27.343750
4491,23.437500
4492,23.437500
4493,23.437500
4494,19.531250
4495,19.531250
4496,19.531250
4497,19.531250
4498,19.531250
4499,19.531250
4500,15.625000
4501,15.625000
4502,15.625000
4503,11.718750
4504,11.718750
4505,11.718750
4506,11.718750
4507,7.812500
4508,7.812500
4509,7.812500
4510,7.812500
4511,3.906250
4512,3.906250
4513,3.906250
4514,3.906250
4515,0.000000
4516,0.000000
4517,0.000000
4518,-3.906250
4519,-3.906250
4520,-3.906250
4521,-3.906250
4522,-3.906250
4523,-7.812500
4524,-7.812500
4525,-11.718750
4526,-11.718750
4527,-11.718750
4528,-11.718750
4529,-11.718750
4530,-11.718750
4531,-15.625000
4532,-15.625000
4533,-15.625000
4534,-19.531250
4535,-19.531250
4536,-19.531250
4537,-19.531250
4538,-23.437500
4539,-23.437500
4540,-23.437500
4541,-27.343750
4542,-27.343750
4543,-27.343750
4544,-27.343750
4545,-31.250000
4546,-31.250000
4547,-31.250000
4548,-35.156250
4549,-35.156250
4550,-35.156250
4551,-39.062500
4552,-35.156250
4553,-39.062500
4554,-39.062500
4555,-39.062500
4556,-42.968750
4557,-42.968750
4558,-42.968750
4559,-42.968750
4560,-42.968750
4561,-46.875000
4562,-46.875000
4563,-46.875000
4564,-50.781250
4565,-50.781250
4566,-50.781250
4567,-50.781250
4568,-54.687500
4569,-54.687500
4570,-54.687500
4571,-54.687500
4572,-58.593750
4573,-58.593750
4574,-58.593750
4575,-58.593750
4576,-62.500000
4577,-62.500000
4578,-62.500000
4579,-66.406250
4580,-66.406250
4581,-66.406250
4582,-66.406250
4583,-70.312500
4584,-70.312500
4585,-70.312500
4586,-74.218750
4587,-74.218750
4588,-74.218750
4589,-74.218750
4590,-74.218750
4591,-78.125000
4592,-78.125000
4593,-78.125000
4594,-78.125000
4595,-82.031250
4596,-82.031250
4597,-82.031250
4598,-82.031250
4599,-85.937500
4600,-85.937500
4601,-85.937500
4602,-85.937500
4603,-85.937500
4604,-89.843750
4605,-89.843750
4606,-89.843750
4607,-93.750000
4608,-93.750000
4609,-93.750000
4610,-93.750000
4611,-93.750000
4612,-97.656250
4613,-97.656250
4614,-97.656250
4615,-97.656250
4616,-101.562500
4617,-101.562500
4618,-101.562500
4619,-105.468750
4620,-105.468750
4621,-105.468750
4622,-105.468750
4623,-105.468750
4624,-109.375000
4625,-109.375000
4626,-109.375000
4627,-109.375000
4628,-113.281250
4629,-113.281250
4630,-113.281250
4631,-113.281250
4632,-113.281250
4633,-117.187500
4634,-117.187500
4635,-117.187500
4636,-121.093750
4637,-121.093750
4638,-121.093750
4639,-121.093750
4640,-121.093750
4641,-121.093750
4642,-125.000000
4643,-125.000000
4644,-125.000000
4645,-125.000000
4646,-128.906250
4647,-128.906250
4648,-128.906250
4649,-128.906250
4650,-128.906250
4651,-132.812500
4652,-132.812500
4653,-132.812500
4654,-132.812500
4655,-132.812500
4656,-132.812500
4657,-136.718750
4658,-136.718750
4659,-136.718750
4660,-136.718750
4661,-136.718750
4662,-140.625000
4663,-140.625000
4664,-140.625000
4665,-140.625000
4666,-140.625000
4667,-144.531250
4668,-144.531250
4669,-144.531250
4670,-144.531250
4671,-144.531250
4672,-144.531250
4673,-148.437500
4674,-148.437500
4675,-148.437500
4676,-148.437500
4677,-148.437500
4678,-148.437500
4679,-152.343750
4680,-152.343750
4681,-152.343750
4682,-152.343750
4683,-152.343750
4684,-152.343750
4685,-156.250000
4686,-156.250000
4687,-156.250000
4688,-156.250000
4689,-156.250000
4690,-156.250000
4691,-156.250000
4692,-160.156250
4693,-160.156250
4694,-160.156250
4695,-160.156250
4696,-160.156250
4697,-160.156250
4698,-160.156250
4699,-160.156250
4700,-164.062500
4701,-164.062500
4702,-164.062500
4703,-164.062500
4704,-164.062500
4705,-164.062500
4706,-164.062500
4707,-167.968750
4708,-167.968750
4709,-167.968750
4710,-167.968750
4711,-167.968750
4712,-167.968750
4713,-167.968750
4714,-167.968750
4715,-167.968750
4716,-167.968750
4717,-171.875000
4718,-171.875000
4719,-171.875000
4720,-171.875000
4721,-171.875000
4722,-171.875000
4723,-171.875000
4724,-171.875000
4725,-171.875000
4726,-175.781250
4727,-175.781250
4728,-175.781250
4729,-171.875000
4730,-175.781250
4731,-175.781250
4732,-175.781250
4733,-175.781250
4734,-175.781250
4735,-175.781250
4736,-175.781250
4737,-175.781250
4738,-175.781250
4739,-175.781250
4740,-175.781250
4741,-175.781250
4742,-175.781250
4743,-179.687500
4744,-179.687500
4745,-179.687500
4746,-179.687500
4747,-179.687500
4748,-179.687500
4749,-179.687500
4750,-179.687500
4751,-179.687500
4752,-179.687500
4753,-179.687500
4754,-179.687500
4755,-179.687500
4756,-179.687500
4757,-179.687500
4758,-179.687500
4759,-179.687500
4760,-179.687500
4761,-179.687500
4762,-179.687500
4763,-179.687500
4764,-179.687500
4765,-179.687500
4766,-179.687500
4767,-179.687500
4768,-179.687500
4769,-179.687500
4770,-179.687500
4771,-179.687500
4772,-179.687500
4773,-179.687500
4774,-179.687500
4775,-179.687500
4776,-179.687500
4777,-179.687500
4778,-179.687500
4779,-179.687500
4780,-179.687500
4781,-179.687500
4782,-179.687500
4783,-179.687500
4784,-179.687500
4785,-179.687500
4786,-179.687500
4787,-179.687500
4788,-179.687500
4789,-179.687500
4790,-179.687500
4791,-179.687500
4792,-179.687500
4793,-179.687500
4794,-179.687500
4795,-179.687500
4796,-179.687500
4797,-175.781250
4798,-175.781250
4799,-175.781250
4800,-175.781250
4801,-175.781250
4802,-175.781250
4803,-175.781250
4804,-175.781250
4805,-175.781250
4806,-175.781250
4807,-175.781250
4808,-175.781250
4809,-175.781250
4810,-171.875000
4811,-175.781250
4812,-171.875000
4813,-171.875000
4814,-171.875000
4815,-171.875000
4816,-171.875000
4817,-171.875000
4818,-171.875000
4819,-171.875000
4820,-171.875000
4821,-171.875000
4822,-171.875000
4823,-167.968750
4824,-171.875000
4825,-171.875000
4826,-167.968750
4827,-167.968750
4828,-167.968750
4829,-167.968750
4830,-167.968750
4831,-167.968750
4832,-167.968750
4833,-164.062500
4834,-164.062500
4835,-164.062500
4836,-164.062500
4837,-164.062500
4838,-164.062500
4839,-164.062500
4840,-164.062500
4841,-160.156250
4842,-160.156250
4843,-160.156250
4844,-160.156250
4845,-160.156250
4846,-160.156250
4847,-156.250000
4848,-156.250000
4849,-156.250000
4850,-156.250000
4851,-156.250000
4852,-156.250000
4853,-156.250000
4854,-156.250000
4855,-152.343750
4856,-152.343750
4857,-152.343750
4858,-152.343750
4859,-152.343750
4860,-152.343750
4861,-152.343750
4862,-152.343750
4863,-148.437500
4864,-148.437500
4865,-148.437500
4866,-148.437500
4867,-148.437500
4868,-148.437500
4869,-144.531250
4870,-144.531250
4871,-144.531250
4872,-144.531250
4873,-144.531250
4874,-140.625000
4875,-140.625000
4876,-140.625000
4877,-140.625000
4878,-140.625000
4879,-140.625000
4880,-136.718750
4881,-136.718750
4882,-136.718750
4883,-136.718750
4884,-136.718750
4885,-132.812500
4886,-132.812500
4887,-132.812500
4888,-132.812500
4889,-132.812500
4890,-128.906250
4891,-128.906250
4892,-128.906250
4893,-128.906250
4894,-128.906250
4895,-128.906250
4896,-125.000000
4897,-125.000000
4898,-125.000000
4899,-125.000000
4900,-121.093750
4901,-121.093750
4902,-121.093750
4903,-121.093750
4904,-121.093750
4905,-117.187500
4906,-117.187500
4907,-117.187500
4908,-117.187500
4909,-113.281250
4910,-113.281250
4911,-113.281250
4912,-113.281250
4913,-113.281250
4914,-109.375000
4915,-109.375000
4916,-109.375000
4917,-109.375000
4918,-105.468750
4919,-105.468750
4920,-105.468750
4921,-105.468750
4922,-105.468750
4923,-101.562500
4924,-101.562500
4925,-101.562500
4926,-101.562500
4927,-97.656250
4928,-97.656250
4929,-97.656250
4930,-97.656250
4931,-93.750000
4932,-93.750000
4933,-93.750000
4934,-93.750000
4935,-89.843750
4936,-89.843750
4937,-89.843750
4938,-89.843750
4939,-85.937500
4940,-85.937500
4941,-85.937500
4942,-85.937500
4943,-82.031250
4944,-82.031250
4945,-82.031250
4946,-82.031250
4947,-78.125000
4948,-78.125000
4949,-78.125000
4950,-78.125000
4951,-74.218750
4952,-74.218750
4953,-74.218750
4954,-70.312500
4955,-70.312500
4956,-70.312500
4957,-70.312500
4958,-70.312500
4959,-66.406250
4960,-66.406250
4961,-66.406250
4962,-62.500000
4963,-62.500000
4964,-62.500000
4965,-62.500000
4966,-62.500000
4967,-58.593750
4968,-58.593750
4969,-58.593750
4970,-54.687500
4971,-54.687500
4972,-54.687500
4973,-54.687500
4974,-50.781250
4975,-50.781250
4976,-50.781250
4977,-50.781250
4978,-46.875000
4979,-46.875000
4980,-42.968750
4981,-46.875000
4982,-42.968750
4983,-42.968750
4984,-42.968750
4985,-42.968750
4986,-39.062500
4987,-39.062500
4988,-39.062500
4989,-39.062500
4990,-35.156250
4991,-35.156250
4992,-35.156250
4993,-35.156250
4994,-35.156250
4995,-31.250000
4996,-31.250000
4997,-31.250000
4998,-27.343750
4999,-27.343750
5000,-27.343750
5001,-27.343750
5002,-23.437500
5003,-23.437500
5004,-23.437500
5005,-23.437500
5006,-19.531250
5007,-19.531250
5008,-19.531250
5009,-15.625000
5010,-15.625000
5011,-15.625000
5012,-15.625000
5013,-15.625000
5014,-11.718750
5015,-15.625000
5016,-11.718750
5017,-7.812500
5018,-7.812500
5019,-7.812500
5020,-7.812500
5021,-3.906250
5022,-3.906250
5023,-3.906250
5024,-3.906250
5025,0.000000
5026,0.000000
5027,0.000000
5028,0.000000
5029,3.906250
5030,3.906250
5031,3.906250
5032,3.906250
5033,7.812500
5034,7.812500
5035,7.812500
5036,7.812500
5037,11.718750
5038,11.718750
5039,11.718750
5040,11.718750
5041,15.625000
5042,15.625000
5043,15.625000
5044,15.625000
5045,19.531250
5046,19.531250
5047,19.531250
5048,19.531250
5049,23.437500
5050,23.437500
5051,23.437500
5052,23.437500
5053,27.343750
5054,27.343750
5055,27.343750
5056,27.343750
5057,27.343750
5058,31.250000
5059,31.250000
5060,31.250000
5061,35.156250
5062,35.156250
5063,35.156250
5064,35.156250
5065,35.156250
5066,39.062500
5067,39.062500
5068,39.062500
5069,39.062500
5070,39.062500
5071,42.968750
5072,42.968750
5073,42.968750
5074,42.968750
5075,46.875000
5076,46.875000
5077,46.875000
5078,46.875000
5079,50.781250
5080,50.781250
5081,50.781250
5082,50.781250
5083,50.781250
5084,54.687500
5085,54.687500
5086,54.687500
5087,54.687500
5088,54.687500
5089,58.593750
5090,58.593750
5091,58.593750
5092,58.593750
5093,58.593750
5094,62.500000
5095,62.500000
5096,62.500000
5097,62.500000
5098,66.406250
5099,66.406250
5100,66.406250
5101,66.406250
5102,66.406250
5103,66.406250
5104,70.312500
5105,70.312500
5106,70.312500
5107,70.312500
5108,70.312500
5109,74.218750
5110,74.218750
5111,74.218750
5112,74.218750
5113,74.218750
5114,78.125000
5115,74.218750
5116,78.125000
5117,78.125000
5118,78.125000
5119,78.125000
5120,82.031250
5121,82.031250
5122,82.031250
5123,82.031250
5124,82.031250
5125,82.031250
5126,85.937500
5127,85.937500
5128,85.937500
5129,85.937500
5130,85.937500
5131,85.937500
5132,89.843750
5133,89.843750
5134,89.843750
5135,89.843750
5136,89.843750
5137,89.843750
5138,93.750000
5139,93.750000
5140,93.750000
5141,93.750000
5142,93.750000
5143,93.750000
5144,93.750000
5145,97.656250
5146,97.656250
5147,97.656250
5148,97.656250
5149,97.656250
5150,97.656250
5151,97.656250
5152,101.562500
5153,101.562500
5154,101.562500
5155,101.562500
5156,101.562500
5157,101.562500
5158,105.468750
5159,105.468750
5160,105.468750
5161,105.468750
5162,105.468750
5163,105.468750
5164,105.468750
5165,105.468750
5166,109.375000
5167,109.375000
5168,109.375000
5169,109.375000
5170,109.375000
5171,109.375000
5172,109.375000
5173,109.375000
5174,109.375000
5175,113.281250
5176,113.281250
5177,113.281250
5178,113.281250
5179,113.281250
5180,113.281250
5181,113.281250
5182,113.281250
5183,113.281250
5184,117.187500
5185,113.281250
5186,117.187500
5187,117.187500
5188,117.187500
5189,117.187500
5190,117.187500
5191,117.187500
5192,117.187500
5193,121.093750
5194,117.187500
5195,117.187500
5196,121.093750
5197,121.093750
5198,121.093750
5199,121.093750
5200,121.093750
5201,121.093750
5202,121.093750
5203,121.093750
5204,121.093750
5205,125.000000
5206,121.093750
5207,125.000000
5208,125.000000
5209,125.000000
5210,125.000000
5211,125.000000
5212,125.000000
5213,125.000000
5214,125.000000
5215,125.000000
5216,125.000000
5217,125.000000
5218,125.000000
5219,125.000000
5220,128.906250
5221,128.906250
5222,128.906250
5223,128.906250
5224,128.906250
5225,128.906250
5226,128.906250
5227,128.906250
5228,128.906250
5229,128.906250
5230,132.812500
5231,128.906250
5232,128.906250
5233,128.906250
5234,128.906250
5235,128.906250
5236,128.906250
5237,128.906250
5238,132.812500
5239,128.906250
5240,128.906250
5241,132.812500
5242,128.906250
5243,132.812500
5244,132.812500
5245,128.906250
5246,128.906250
5247,128.906250
5248,132.812500
5249,128.906250
5250,132.812500
5251,132.812500
5252,132.812500
5253,132.812500
5254,132.812500
5255,128.906250
5256,132.812500
5257,132.812500
5258,132.812500
5259,132.812500
5260,132.812500
5261,132.812500
5262,132.812500
5263,132.812500
5264,132.812500
5265,132.812500
5266,132.812500
5267,132.812500
5268,132.812500
5269,132.812500
5270,132.812500
5271,132.812500
5272,132.812500
5273,132.812500
5274,132.812500
5275,132.812500
5276,132.812500
5277,132.812500
5278,132.812500
5279,132.812500
5280,132.812500
5281,132.812500
5282,132.812500
5283,132.812500
5284,132.812500
5285,132.812500
5286,132.812500
5287,132.812500
5288,132.812500
5289,132.812500
5290,132.812500
5291,132.812500
5292,132.812500
5293,128.906250
5294,128.906250
5295,128.906250
5296,128.906250
5297,128.906250
5298,128.906250
5299,128.906250
5300,132.812500
5301,128.906250
5302,128.906250
5303,128.906250
5304,128.906250
5305,128.906250
5306,128.906250
5307,128.906250
5308,128.906250
5309,128.906250
5310,128.906250
5311,128.906250
5312,128.906250
5313,128.906250
5314,128.906250
5315,125.000000
5316,128.906250
5317,125.000000
5318,128.906250
5319,125.000000
5320,128.906250
5321,125.000000
5322,125.000000
5323,125.000000
5324,125.000000
5325,125.000000
5326,125.000000
5327,125.000000
5328,125.000000
5329,125.000000
5330,125.000000
5331,125.000000
5332,121.093750
5333,121.093750
5334,121.093750
5335,121.093750
5336,121.093750
5337,121.093750
5338,121.093750
5339,121.093750
5340,121.093750
5341,121.093750
5342,121.093750
5343,121.093750
5344,117.187500
5345,117.187500
5346,117.187500
5347,117.187500
5348,117.187500
5349,117.187500
5350,117.187500
5351,117.187500
5352,117.187500
5353,113.281250
5354,113.281250
5355,113.281250
5356,113.281250
5357,113.281250
5358,113.281250
5359,113.281250
5360,113.281250
5361,113.281250
5362,113.281250
5363,109.375000
5364,109.375000
5365,109.375000
5366,109.375000
5367,109.375000
5368,109.375000
5369,109.375000
5370,109.375000
5371,105.468750
5372,105.468750
5373,105.468750
5374,105.468750
5375,105.468750
5376,105.468750
5377,105.468750
5378,105.468750
5379,101.562500
5380,101.562500
5381,101.562500
5382,101.562500
5383,101.562500
5384,101.562500
5385,97.656250
5386,97.656250
5387,97.656250
5388,97.656250
5389,97.656250
5390,97.656250
5391,97.656250
5392,93.750000
5393,93.750000
5394,93.750000
5395,89.843750
5396,93.750000
5397,93.750000
5398,93.750000
5399,89.843750
5400,89.843750
5401,89.843750
5402,89.843750
5403,89.843750
5404,85.937500
5405,85.937500
5406,85.937500
5407,85.937500
5408,85.937500
5409,82.031250
5410,85.937500
5411,82.031250
5412,82.031250
5413,82.031250
5414,82.031250
5415,78.125000
5416,78.125000
5417,78.125000
5418,78.125000
5419,78.125000
5420,78.125000
5421,74.218750
5422,74.218750
5423,74.218750
5424,74.218750
5425,74.218750
5426,70.312500
5427,70.312500
5428,70.312500
5429,70.312500
5430,70.312500
5431,66.406250
5432,66.406250
5433,66.406250
5434,66.406250
5435,66.406250
5436,62.500000
5437,62.500000
5438,62.500000
5439,62.500000
5440,62.500000
5441,58.593750
5442,58.593750
5443,58.593750
5444,58.593750
5445,58.593750
5446,54.687500
5447,54.687500
5448,54.687500
5449,54.687500
5450,54.687500
5451,50.781250
5452,50.781250
5453,50.781250
5454,50.781250
5455,50.781250
5456,46.875000
5457,46.875000
5458,46.875000
5459,46.875000
5460,42.968750
5461,42.968750
5462,42.968750
5463,42.968750
5464,39.062500
5465,39.062500
5466,39.062500
5467,39.062500
5468,39.062500
5469,35.156250
5470,35.156250
5471,35.156250
5472,31.250000
5473,31.250000
5474,31.250000
5475,31.250000
5476,31.250000
5477,27.343750
5478,27.343750
5479,27.343750
5480,27.343750
5481,23.437500
5482,23.437500
5483,23.437500
5484,23.437500
5485,19.531250
5486,19.531250
5487,19.531250
5488,19.531250
5489,15.625000
5490,15.625000
5491,15.625000
5492,15.625000
5493,11.718750
5494,11.718750
5495,11.718750
5496,11.718750
5497,7.812500
5498,7.812500
5499,7.812500
5500,3.906250
5501,3.906250
5502,3.906250
5503,3.906250
5504,0.000000
5505,0.000000
5506,0.000000
5507,0.000000
5508,-3.906250
5509,-3.906250
5510,-3.906250
5511,-3.906250
5512,-7.812500
5513,-7.812500
5514,-7.812500
5515,-7.812500
5516,-11.718750
5517,-11.718750
5518,-11.718750
5519,-11.718750
5520,-15.625000
5521,-15.625000
5522,-15.625000
5523,-19.531250
5524,-19.531250
5525,-19.531250
5526,-19.531250
5527,-19.531250
5528,-23.437500
5529,-23.437500
5530,-27.343750
5531,-27.343750
5532,-27.343750
5533,-27.343750
5534,-27.343750
5535,-31.250000
5536,-31.250000
5537,-31.250000
5538,-31.250000
5539,-35.156250
5540,-35.156250
5541,-35.156250
5542,-39.062500
5543,-39.062500
5544,-39.062500
5545,-39.062500
5546,-39.062500
5547,-42.968750
5548,-42.968750
5549,-42.968750
5550,-42.968750
5551,-46.875000
5552,-46.875000
5553,-46.875000
5554,-50.781250
5555,-50.781250
5556,-50.781250
5557,-50.781250
5558,-54.687500
5559,-54.687500
5560,-54.687500
5561,-54.687500
5562,-58.593750
5563,-58.593750
5564,-58.593750
5565,-62.500000
5566,-62.500000
5567,-62.500000
5568,-62.500000
5569,-66.406250
5570,-66.406250
5571,-66.406250
5572,-66.406250
5573,-70.312500
5574,-70.312500
5575,-70.312500
5576,-70.312500
5577,-74.218750
5578,-74.218750
5579,-74.218750
5580,-74.218750
5581,-78.125000
5582,-78.125000
5583,-78.125000
5584,-78.125000
5585,-82.031250
5586,-82.031250
5587,-82.031250
5588,-85.937500
5589,-85.937500
5590,-85.937500
5591,-85.937500
5592,-85.937500
5593,-89.843750
5594,-89.843750
5595,-89.843750
5596,-89.843750
5597,-93.750000
5598,-93.750000
5599,-93.750000
5600,-93.750000
5601,-97.656250
5602,-97.656250
5603,-97.656250
5604,-97.656250
5605,-101.562500
5606,-101.562500
5607,-101.562500
5608,-101.562500
5609,-101.562500
5610,-105.468750
5611,-105.468750
5612,-105.468750
5613,-105.468750
5614,-109.375000
5615,-109.375000
5616,-109.375000
5617,-109.375000
5618,-113.281250
5619,-113.281250
5620,-113.281250
5621,-113.281250
5622,-113.281250
5623,-117.187500
5624,-117.187500
5625,-117.187500
5626,-117.187500
5627,-121.093750
5628,-121.093750
5629,-121.093750
5630,-121.093750
5631,-121.093750
5632,-125.000000
5633,-125.000000
5634,-125.000000
5635,-125.000000
5636,-128.906250
5637,-128.906250
5638,-128.906250
5639,-128.906250
5640,-128.906250
5641,-132.812500
5642,-132.812500
5643,-132.812500
5644,-132.812500
5645,-132.812500
5646,-132.812500
5647,-136.718750
5648,-136.718750
5649,-136.718750
5650,-136.718750
5651,-140.625000
5652,-140.625000
5653,-140.625000
5654,-140.625000
5655,-140.625000
5656,-144.531250
5657,-140.625000
5658,-144.531250
5659,-144.531250
5660,-144.531250
5661,-144.531250
5662,-148.437500
5663,-148.437500
5664,-144.531250
5665,-148.437500
5666,-148.437500
5667,-148.437500
5668,-152.343750
5669,-152.343750
5670,-152.343750
5671,-152.343750
5672,-152.343750
5673,-152.343750
5674,-156.250000
5675,-156.250000
5676,-156.250000
5677,-156.250000
5678,-156.250000
5679,-156.250000
5680,-156.250000
5681,-160.156250
5682,-160.156250
5683,-160.156250
5684,-160.156250
5685,-160.156250
5686,-160.156250
5687,-160.156250
5688,-160.156250
5689,-164.062500
5690,-164.062500
5691,-164.062500
5692,-164.062500
5693,-164.062500
5694,-164.062500
5695,-164.062500
5696,-164.062500
5697,-164.062500
5698,-167.968750
5699,-167.968750
5700,-167.968750
5701,-167.968750
5702,-167.968750
5703,-167.968750
5704,-167.968750
5705,-167.968750
5706,-167.968750
5707,-171.875000
5708,-167.968750
5709,-171.875000
5710,-171.875000
5711,-171.875000
5712,-171.875000
5713,-171.875000
5714,-171.875000
5715,-171.875000
5716,-171.875000
5717,-171.875000
5718,-171.875000
5719,-175.781250
5720,-175.781250
5721,-175.781250
5722,-175.781250
5723,-175.781250
5724,-175.781250
5725,-175.781250
5726,-175.781250
5727,-175.781250
5728,-175.781250
5729,-175.781250
5730,-175.781250
5731,-175.781250
5732,-175.781250
5733,-175.781250
5734,-175.781250
5735,-175.781250
5736,-175.781250
5737,-175.781250
5738,-179.687500
5739,-179.687500
5740,-179.687500
5741,-179.687500
5742,-179.687500
5743,-179.687500
5744,-179.687500
5745,-179.687500
5746,-179.687500
5747,-179.687500
5748,-179.687500
5749,-179.687500
5750,-179.687500
5751,-179.687500
5752,-179.687500
5753,-179.687500
5754,-179.687500
5755,-179.687500
5756,-179.687500
5757,-179.687500
5758,-179.687500
5759,-179.687500
5760,-179.687500
5761,-179.687500
5762,-179.687500
5763,-179.687500
5764,-179.687500
5765,-179.687500
5766,-179.687500
5767,-179.687500
5768,-179.687500
5769,-179.687500
5770,-179.687500
5771,-179.687500
5772,-179.687500
5773,-179.687500
5774,-179.687500
5775,-179.687500
5776,-179.687500
5777,-179.687500
5778,-179.687500
5779,-179.687500
5780,-175.781250
5781,-179.687500
5782,-179.687500
5783,-179.687500
5784,-179.687500
5785,-179.687500
5786,-175.781250
5787,-179.687500
5788,-175.781250
5789,-175.781250
5790,-175.781250
5791,-175.781250
5792,-175.781250
5793,-175.781250
5794,-175.781250
5795,-175.781250
5796,-175.781250
5797,-175.781250
5798,-175.781250
5799,-175.781250
5800,-175.781250
5801,-175.781250
5802,-175.781250
5803,-175.781250
5804,-171.875000
5805,-171.875000
5806,-171.875000
5807,-171.875000
5808,-171.875000
5809,-171.875000
5810,-171.875000
5811,-171.875000
5812,-171.875000
5813,-171.875000
5814,-171.875000
5815,-167.968750
5816,-167.968750
5817,-167.968750
5818,-167.968750
5819,-167.968750
5820,-167.968750
5821,-167.968750
5822,-167.968750
5823,-167.968750
5824,-164.062500
5825,-164.062500
5826,-164.062500
5827,-164.062500
5828,-164.062500
5829,-164.062500
5830,-164.062500
5831,-164.062500
5832,-160.156250
5833,-160.156250
5834,-160.156250
5835,-160.156250
5836,-160.156250
5837,-160.156250
5838,-156.250000
5839,-160.156250
5840,-156.250000
5841,-156.250000
5842,-156.250000
5843,-156.250000
5844,-156.250000
5845,-152.343750
5846,-156.250000
5847,-152.343750
5848,-152.343750
5849,-152.343750
5850,-152.343750
5851,-152.343750
5852,-148.437500
5853,-148.437500
5854,-148.437500
5855,-148.437500
5856,-148.437500
5857,-148.437500
5858,-144.531250
5859,-144.531250
5860,-144.531250
5861,-144.531250
5862,-144.531250
5863,-140.625000
5864,-140.625000
5865,-140.625000
5866,-140.625000
5867,-140.625000
5868,-140.625000
5869,-140.625000
5870,-136.718750
5871,-136.718750
5872,-136.718750
5873,-136.718750
5874,-136.718750
5875,-132.812500
5876,-132.812500
5877,-132.812500
5878,-132.812500
5879,-132.812500
5880,-132.812500
5881,-128.906250
5882,-128.906250
5883,-128.906250
5884,-128.906250
5885,-125.000000
5886,-125.000000
5887,-125.000000
5888,-125.000000
5889,-125.000000
5890,-121.093750
5891,-121.093750
5892,-121.093750
5893,-121.093750
5894,-117.187500
5895,-117.187500
5896,-117.187500
5897,-117.187500
5898,-117.187500
5899,-113.281250
5900,-113.281250
5901,-113.281250
5902,-113.281250
5903,-113.281250
5904,-109.375000
5905,-109.375000
5906,-109.375000
5907,-109.375000
5908,-109.375000
5909,-105.468750
5910,-105.468750
5911,-105.468750
5912,-105.468750
5913,-101.562500
5914,-101.562500
5915,-101.562500
5916,-97.656250
5917,-97.656250
5918,-97.656250
5919,-97.656250
5920,-97.656250
5921,-97.656250
5922,-93.750000
5923,-93.750000
5924,-93.750000
5925,-89.843750
5926,-89.843750
5927,-89.843750
5928,-89.843750
5929,-89.843750
5930,-85.937500
5931,-85.937500
5932,-85.937500
5933,-82.031250
5934,-82.031250
5935,-82.031250
5936,-82.031250
5937,-78.125000
5938,-78.125000
5939,-78.125000
5940,-78.125000
5941,-78.125000
5942,-74.218750
5943,-74.218750
5944,-74.218750
5945,-70.312500
5946,-70.312500
5947,-70.312500
5948,-70.312500
5949,-70.312500
5950,-66.406250
5951,-66.406250
5952,-66.406250
5953,-62.500000
5954,-62.500000
5955,-62.500000
5956,-62.500000
5957,-58.593750
5958,-58.593750
5959,-58.593750
5960,-58.593750
5961,-54.687500
5962,-54.687500
5963,-54.687500
5964,-50.781250
5965,-50.781250
5966,-50.781250
5967,-50.781250
5968,-46.875000
5969,-46.875000
5970,-46.875000
5971,-46.875000
5972,-42.968750
5973,-42.968750
5974,-42.968750
5975,-42.968750
5976,-39.062500
5977,-39.062500
5978,-39.062500
5979,-39.062500
5980,-35.156250
5981,-35.156250
5982,-35.156250
5983,-35.156250
5984,-31.250000
5985,-31.250000
5986,-31.250000
5987,-27.343750
5988,-27.343750
5989,-27.343750
5990,-27.343750
5991,-23.437500
5992,-23.437500
5993,-23.437500
5994,-23.437500
5995,-19.531250
5996,-19.531250
5997,-19.531250
5998,-19.531250
5999,-15.625000
6000,-15.625000
6001,-15.625000
6002,-15.625000
6003,-11.718750
6004,-11.718750
6005,-11.718750
6006,-11.718750
6007,-7.812500
6008,-7.812500
6009,-7.812500
6010,-7.812500
6011,-3.906250
6012,-3.906250
6013,-3.906250
6014,0.000000
6015,0.000000
6016,0.000000
6017,0.000000
6018,0.000000
6019,3.906250
6020,3.906250
6021,3.906250
6022,3.906250
6023,3.906250
6024,7.812500
6025,7.812500
6026,7.812500
6027,11.718750
6028,11.718750
6029,11.718750
6030,11.718750
6031,11.718750
6032,15.625000
6033,15.625000
6034,19.531250
6035,19.531250
6036,19.531250
6037,19.531250
6038,19.531250
6039,19.531250
6040,23.437500
6041,23.437500
6042,23.437500
6043,27.343750
6044,27.343750
6045,27.343750
6046,27.343750
6047,27.343750
6048,31.250000
6049,31.250000
6050,31.250000
6051,31.250000
6052,35.156250
6053,35.156250
6054,35.156250
6055,35.156250
6056,39.062500
6057,39.062500
6058,39.062500
6059,39.062500
6060,39.062500
6061,42.968750
6062,42.968750
6063,42.968750
6064,42.968750
6065,46.875000
6066,46.875000
6067,46.875000
6068,46.875000
6069,46.875000
6070,50.781250
6071,50.781250
6072,50.781250
6073,54.687500
6074,54.687500
6075,54.687500
6076,54.687500
6077,54.687500
6078,58.593750
6079,58.593750
6080,58.593750
6081,58.593750
6082,58.593750
6083,58.593750
6084,62.500000
6085,62.500000
6086,62.500000
6087,62.500000
6088,66.406250
6089,66.406250
6090,66.406250
6091,66.406250
6092,66.406250
6093,66.406250
6094,70.312500
6095,70.312500
6096,70.312500
6097,70.312500
6098,70.312500
6099,74.218750
6100,74.218750
6101,74.218750
6102,74.218750
6103,74.218750
6104,78.125000
6105,78.125000
6106,78.125000
6107,78.125000
6108,78.125000
6109,78.125000
6110,82.031250
6111,82.031250
6112,82.031250
6113,82.031250
6114,82.031250
6115,85.937500
6116,82.031250
6117,85.937500
6118,85.937500
6119,85.937500
6120,85.937500
6121,89.843750
6122,89.843750
6123,89.843750
6124,89.843750
6125,89.843750
6126,89.843750
6127,93.750000
6128,93.750000
6129,93.750000
6130,93.750000
6131,93.750000
6132,93.750000
6133,93.750000
6134,97.656250
6135,97.656250
6136,97.656250
6137,97.656250
6138,97.656250
6139,97.656250
6140,97.656250
6141,101.562500
6142,101.562500
6143,101.562500
6144,101.562500
6145,101.562500
6146,101.562500
6147,101.562500
6148,101.562500
6149,101.562500
6150,105.468750
6151,105.468750
6152,105.468750
6153,105.468750
6154,105.468750
6155,105.468750
6156,105.468750
6157,109.375000
6158,109.375000
6159,109.375000
6160,109.375000
6161,109.375000
6162,109.375000
6163,109.375000
6164,109.375000
6165,109.375000
6166,113.281250
6167,113.281250
6168,113.281250
6169,113.281250
6170,113.281250
6171,113.281250
6172,113.281250
6173,113.281250
6174,117.187500
6175,117.187500
6176,117.187500
6177,117.187500
6178,117.187500
6179,117.187500
6180,117.187500
6181,117.187500
6182,117.187500
6183,121.093750
6184,121.093750
6185,121.093750
6186,121.093750
6187,121.093750
6188,121.093750
6189,121.093750
6190,121.093750
6191,121.093750
6192,121.093750
6193,121.093750
6194,125.000000
6195,121.093750
6196,121.093750
6197,125.000000
6198,125.000000
6199,125.000000
6200,125.000000
6201,125.000000
6202,125.000000
6203,125.000000
6204,125.000000
6205,125.000000
6206,125.000000
6207,125.000000
6208,125.000000
6209,125.000000
6210,128.906250
6211,128.906250
6212,128.906250
6213,128.906250
6214,128.906250
6215,128.906250
6216,128.906250
6217,128.906250
6218,128.906250
6219,128.906250
6220,128.906250
6221,128.906250
6222,128.906250
6223,128.906250
6224,128.906250
6225,128.906250
6226,128.906250
6227,128.906250
6228,128.906250
6229,128.906250
6230,128.906250
6231,128.906250
6232,128.906250
6233,128.906250
6234,128.906250
6235,128.906250
6236,132.812500
6237,128.906250
6238,132.812500
6239,132.812500
6240,132.812500
6241,132.812500
6242,132.812500
6243,132.812500
6244,132.812500
6245,132.812500
6246,132.812500
6247,132.812500
6248,132.812500
6249,132.812500
6250,132.812500
6251,132.812500
6252,132.812500
6253,132.812500
6254,132.812500
6255,132.812500
6256,132.812500
6257,132.812500
6258,132.812500
6259,132.812500
6260,132.812500
6261,132.812500
6262,132.812500
6263,132.812500
6264,132.812500
6265,132.812500
6266,132.812500
6267,132.812500
6268,132.812500
6269,132.812500
6270,132.812500
6271,132.812500
6272,132.812500
6273,132.812500
6274,132.812500
6275,128.906250
6276,132.812500
6277,132.812500
6278,132.812500
6279,132.812500
6280,132.812500
6281,132.812500
6282,132.812500
6283,132.812500
6284,132.812500
6285,128.906250
6286,132.812500
6287,128.906250
6288,128.906250
6289,128.906250
6290,128.906250
6291,128.906250
6292,128.906250
6293,128.906250
6294,128.906250
6295,128.906250
6296,128.906250
6297,128.906250
6298,128.906250
6299,128.906250
6300,128.906250
6301,128.906250
6302,128.906250
6303,125.000000
6304,128.906250
6305,125.000000
6306,125.000000
6307,125.000000
6308,125.000000
6309,125.000000
6310,125.000000
6311,125.000000
6312,125.000000
6313,125.000000
6314,125.000000
6315,125.000000
6316,125.000000
6317,125.000000
6318,125.000000
6319,125.000000
6320,125.000000
6321,121.093750
6322,121.093750
6323,121.093750
6324,121.093750
6325,121.093750
6326,121.093750
6327,121.093750
6328,121.093750
6329,121.093750
6330,121.093750
6331,121.093750
6332,121.093750
6333,117.187500
6334,117.187500
6335,117.187500
6336,117.187500
6337,117.187500
6338,117.187500
6339,117.187500
6340,117.187500
6341,117.187500
6342,117.187500
6343,113.281250
6344,113.281250
6345,113.281250
6346,113.281250
6347,113.281250
6348,113.281250
6349,113.281250
6350,113.281250
6351,113.281250
6352,109.375000
6353,109.375000
6354,109.375000
6355,109.375000
6356,109.375000
6357,109.375000
6358,109.375000
6359,109.375000
6360,109.375000
6361,105.468750
6362,105.468750
6363,105.468750
6364,105.468750
6365,105.468750
6366,105.468750
6367,105.468750
6368,101.562500
6369,101.562500
6370,101.562500
6371,101.562500
6372,101.562500
6373,101.562500
6374,101.562500
6375,97.656250
6376,97.656250
6377,97.656250
6378,97.656250
6379,97.656250
6380,97.656250
6381,97.656250
6382,97.656250
6383,93.750000
6384,93.750000
6385,93.750000
6386,93.750000
6387,93.750000
6388,89.843750
6389,89.843750
6390,89.843750
6391,89.843750
6392,89.843750
6393,89.843750
6394,89.843750
6395,85.937500
6396,85.937500
6397,85.937500
6398,85.937500
6399,85.937500
6400,85.937500
6401,82.031250
6402,82.031250
6403,82.031250
6404,82.031250
6405,78.125000
6406,78.125000
6407,78.125000
6408,78.125000
6409,78.125000
6410,78.125000
6411,78.125000
6412,74.218750
6413,74.218750
6414,74.218750
6415,74.218750
6416,70.312500
6417,70.312500
6418,70.312500
6419,70.312500
6420,70.312500
6421,70.312500
6422,66.406250
6423,66.406250
6424,66.406250
6425,66.406250
6426,66.406250
6427,62.500000
6428,62.500000
6429,62.500000
6430,62.500000
6431,58.593750
6432,58.593750
6433,58.593750
6434,58.593750
6435,58.593750
6436,54.687500
6437,54.687500
6438,54.687500
6439,54.687500
6440,50.781250
6441,50.781250
6442,50.781250
6443,50.781250
6444,50.781250
6445,46.875000
6446,46.875000
6447,46.875000
6448,46.875000
6449,42.968750
6450,42.968750
6451,42.968750
6452,42.968750
6453,42.968750
6454,39.062500
6455,39.062500
6456,39.062500
6457,35.156250
6458,35.156250
6459,35.156250
6460,35.156250
6461,35.156250
6462,35.156250
6463,31.250000
6464,31.250000
6465,31.250000
6466,31.250000
6467,27.343750
6468,27.343750
6469,27.343750
6470,27.343750
6471,23.437500
6472,23.437500
6473,23.437500
6474,19.531250
6475,23.437500
6476,19.531250
6477,19.531250
6478,19.531250
6479,15.625000
6480,15.625000
6481,15.625000
6482,15.625000
6483,11.718750
6484,11.718750
6485,11.718750
6486,7.812500
6487,7.812500
6488,7.812500
6489,7.812500
6490,7.812500
6491,3.906250
6492,3.906250
6493,3.906250
6494,0.000000
6495,0.000000
6496,0.000000
6497,0.000000
6498,-3.906250
6499,-3.906250
6500,-3.906250
6501,-3.906250
6502,-7.812500
6503,-7.812500
6504,-7.812500
6505,-7.812500
6506,-11.718750
6507,-11.718750
6508,-11.718750
6509,-15.625000
6510,-15.625000
6511,-15.625000
6512,-15.625000
6513,-19.531250
6514,-19.531250
6515,-19.531250
6516,-23.437500
6517,-23.437500
6518,-23.437500
6519,-23.437500
6520,-23.437500
6521,-27.343750
6522,-27.343750
6523,-27.343750
6524,-27.343750
6525,-31.250000
6526,-31.250000
6527,-31.250000
6528,-35.156250
6529,-35.156250
6530,-35.156250
6531,-35.156250
6532,-39.062500
6533,-39.062500
6534,-39.062500
6535,-39.062500
6536,-42.968750
6537,-42.968750
6538,-42.968750
6539,-42.968750
6540,-46.875000
6541,-46.875000
6542,-46.875000
6543,-50.781250
6544,-50.781250
6545,-50.781250
6546,-50.781250
6547,-54.687500
6548,-54.687500
6549,-54.687500
6550,-54.687500
6551,-58.593750
6552,-58.593750
6553,-58.593750
6554,-58.593750
6555,-62.500000
6556,-62.500000
6557,-62.500000
6558,-62.500000
6559,-66.406250
6560,-66.406250
6561,-66.406250
6562,-66.406250
6563,-70.312500
6564,-70.312500
6565,-70.312500
6566,-74.218750
6567,-74.218750
6568,-74.218750
6569,-74.218750
6570,-78.125000
6571,-78.125000
6572,-82.031250
6573,-78.125000
6574,-82.031250
6575,-82.031250
6576,-82.031250
6577,-82.031250
6578,-85.937500
6579,-85.937500
6580,-85.937500
6581,-85.937500
6582,-89.843750
6583,-89.843750
6584,-89.843750
6585,-89.843750
6586,-93.750000
6587,-93.750000
6588,-93.750000
6589,-93.750000
6590,-97.656250
6591,-97.656250
6592,-97.656250
6593,-97.656250
6594,-101.562500
6595,-101.562500
6596,-101.562500
6597,-101.562500
6598,-101.562500
6599,-105.468750
6600,-105.468750
6601,-105.468750
6602,-105.468750
6603,-109.375000
6604,-109.375000
6605,-109.375000
6606,-109.375000
6607,-113.281250
6608,-113.281250
6609,-113.281250
6610,-113.281250
6611,-113.281250
6612,-113.281250
6613,-117.187500
6614,-117.187500
6615,-117.187500
6616,-121.093750
6617,-121.093750
6618,-121.093750
6619,-121.093750
6620,-121.093750
6621,-121.093750
6622,-125.000000
6623,-125.000000
6624,-125.000000
6625,-125.000000
6626,-128.906250
6627,-128.906250
6628,-128.906250
6629,-128.906250
6630,-128.906250
6631,-132.812500
6632,-132.812500
6633,-132.812500
6634,-132.812500
6635,-132.812500
6636,-136.718750
6637,-136.718750
6638,-136.718750
6639,-136.718750
6640,-136.718750
6641,-140.625000
6642,-140.625000
6643,-140.625000
6644,-140.625000
6645,-140.625000
6646,-140.625000
6647,-144.531250
6648,-144.531250
6649,-144.531250
6650,-144.531250
6651,-144.531250
6652,-148.437500
6653,-148.437500
6654,-148.437500
6655,-148.437500
6656,-148.437500
6657,-152.343750
6658,-148.437500
6659,-152.343750
6660,-152.343750
6661,-152.343750
6662,-152.343750
6663,-152.343750
6664,-156.250000
6665,-152.343750
6666,-156.250000
6667,-156.250000
6668,-156.250000
6669,-156.250000
6670,-156.250000
6671,-160.156250
6672,-160.156250
6673,-160.156250
6674,-160.156250
6675,-160.156250
6676,-160.156250
6677,-160.156250
6678,-160.156250
6679,-160.156250
6680,-164.062500
6681,-164.062500
6682,-164.062500
6683,-164.062500
6684,-164.062500
6685,-167.968750
6686,-167.968750
6687,-167.968750
6688,-167.968750
6689,-167.968750
6690,-167.968750
6691,-167.968750
6692,-167.968750
6693,-167.968750
6694,-167.968750
6695,-167.968750
6696,-171.875000
6697,-171.875000
6698,-171.875000
6699,-171.875000
6700,-171.875000
6701,-171.875000
6702,-171.875000
6703,-171.875000
6704,-171.875000
6705,-171.875000
6706,-175.781250
6707,-175.781250
6708,-175.781250
6709,-175.781250
6710,-175.781250
6711,-175.781250
6712,-175.781250
6713,-175.781250
6714,-175.781250
6715,-175.781250
6716,-175.781250
6717,-175.781250
6718,-175.781250
6719,-175.781250
6720,-175.781250
6721,-175.781250
6722,-175.781250
6723,-179.687500
6724,-179.687500
6725,-179.687500
6726,-179.687500
6727,-179.687500
6728,-179.687500
6729,-179.687500
6730,-179.687500
6731,-179.687500
6732,-179.687500
6733,-179.687500
6734,-179.687500
6735,-179.687500
6736,-179.687500
6737,-179.687500
6738,-179.687500
6739,-179.687500
6740,-179.687500
6741,-179.687500
6742,-179.687500
6743,-179.687500
6744,-179.687500
6745,-179.687500
6746,-179.687500
6747,-179.687500
6748,-179.687500
6749,-179.687500
6750,-179.687500
6751,-179.687500
6752,-179.687500
6753,-179.687500
6754,-179.687500
6755,-179.687500
6756,-179.687500
6757,-179.687500
6758,-179.687500
6759,-179.687500
6760,-179.687500
6761,-179.687500
6762,-179.687500
6763,-179.687500
6764,-179.687500
6765,-179.687500
6766,-179.687500
6767,-179.687500
6768,-179.687500
6769,-179.687500
6770,-179.687500
6771,-179.687500
6772,-179.687500
6773,-179.687500
6774,-179.687500
6775,-179.687500
6776,-179.687500
6777,-179.687500
6778,-175.781250
6779,-175.781250
6780,-175.781250
6781,-175.781250
6782,-175.781250
6783,-175.781250
6784,-175.781250
6785,-175.781250
6786,-175.781250
6787,-175.781250
6788,-175.781250
6789,-175.781250
6790,-175.781250
6791,-175.781250
6792,-175.781250
6793,-171.875000
6794,-175.781250
6795,-171.875000
6796,-171.875000
6797,-171.875000
6798,-171.875000
6799,-171.875000
6800,-167.968750
6801,-171.875000
6802,-171.875000
6803,-171.875000
6804,-167.968750
6805,-171.875000
6806,-167.968750
6807,-167.968750
6808,-167.968750
6809,-167.968750
6810,-167.968750
6811,-167.968750
6812,-167.968750
6813,-167.968750
6814,-164.062500
6815,-164.062500
6816,-164.062500
6817,-164.062500
6818,-164.062500
6819,-164.062500
6820,-164.062500
6821,-164.062500
6822,-160.156250
6823,-160.156250
6824,-160.156250
6825,-160.156250
6826,-160.156250
6827,-160.156250
6828,-160.156250
6829,-160.156250
6830,-160.156250
6831,-156.250000
6832,-156.250000
6833,-156.250000
6834,-156.250000
6835,-156.250000
6836,-156.250000
6837,-152.343750
6838,-152.343750
6839,-152.343750
6840,-152.343750
6841,-152.343750
6842,-148.437500
6843,-152.343750
6844,-148.437500
6845,-148.437500
6846,-148.437500
6847,-148.437500
6848,-144.531250
6849,-144.531250
6850,-144.531250
6851,-144.531250
6852,-144.531250
6853,-144.531250
6854,-144.531250
6855,-144.531250
6856,-140.625000
6857,-140.625000
6858,-140.625000
6859,-136.718750
6860,-136.718750
6861,-136.718750
6862,-136.718750
6863,-136.718750
6864,-136.718750
6865,-136.718750
6866,-132.812500
6867,-132.812500
6868,-132.812500
6869,-132.812500
6870,-128.906250
6871,-128.906250
6872,-128.906250
6873,-128.906250
6874,-128.906250
6875,-128.906250
6876,-128.906250
6877,-125.000000
6878,-125.000000
6879,-125.000000
6880,-121.093750
6881,-121.093750
6882,-121.093750
6883,-121.093750
6884,-121.093750
6885,-117.187500
6886,-117.187500
6887,-117.187500
6888,-117.187500
6889,-113.281250
6890,-113.281250
6891,-113.281250
6892,-113.281250
6893,-113.281250
6894,-109.375000
6895,-109.375000
6896,-109.375000
6897,-109.375000
6898,-105.468750
6899,-105.468750
6900,-105.468750
6901,-105.468750
6902,-105.468750
6903,-101.562500
6904,-101.562500
6905,-101.562500
6906,-101.562500
6907,-97.656250
6908,-97.656250
6909,-97.656250
6910,-97.656250
6911,-93.750000
6912,-93.750000
6913,-93.750000
6914,-93.750000
6915,-93.750000
6916,-89.843750
6917,-89.843750
6918,-89.843750
6919,-85.937500
6920,-85.937500
6921,-85.937500
6922,-85.937500
6923,-85.937500
6924,-82.031250
6925,-82.031250
6926,-82.031250
6927,-82.031250
6928,-78.125000
6929,-78.125000
6930,-78.125000
6931,-74.218750
6932,-74.218750
6933,-74.218750
6934,-74.218750
6935,-74.218750
6936,-70.312500
6937,-70.312500
6938,-70.312500
6939,-70.312500
6940,-66.406250
6941,-66.406250
6942,-66.406250
6943,-66.406250
6944,-62.500000
6945,-66.406250
6946,-62.500000
6947,-58.593750
6948,-58.593750
6949,-58.593750
6950,-58.593750
6951,-54.687500
6952,-54.687500
6953,-54.687500
6954,-54.687500
6955,-50.781250
6956,-50.781250
6957,-50.781250
6958,-50.781250
6959,-46.875000
6960,-46.875000
6961,-46.875000
6962,-46.875000
6963,-42.968750
6964,-42.968750
6965,-42.968750
6966,-39.062500
6967,-39.062500
6968,-39.062500
6969,-39.062500
6970,-35.156250
6971,-35.156250
6972,-35.156250
6973,-35.156250
6974,-31.250000
6975,-31.250000
6976,-31.250000
6977,-31.250000
6978,-27.343750
6979,-27.343750
6980,-27.343750
6981,-27.343750
6982,-23.437500
6983,-23.437500
6984,-23.437500
6985,-23.437500
6986,-19.531250
6987,-19.531250
6988,-19.531250
6989,-19.531250
6990,-15.625000
6991,-15.625000
6992,-15.625000
6993,-11.718750
6994,-11.718750
6995,-11.718750
6996,-11.718750
6997,-7.812500
6998,-7.812500
6999,-7.812500
7000,-7.812500
7001,-7.812500
7002,-3.906250
7003,-3.906250
7004,-3.906250
7005,0.000000
7006,0.000000
7007,0.000000
7008,3.906250
7009,3.906250
7010,3.906250
7011,3.906250
7012,3.906250
7013,3.906250
7014,7.812500
7015,7.812500
7016,7.812500
7017,11.718750
7018,11.718750
7019,11.718750
7020,15.625000
7021,15.625000
7022,15.625000
7023,15.625000
7024,15.625000
7025,19.531250
7026,19.531250
7027,19.531250
7028,23.437500
7029,23.437500
7030,23.437500
7031,23.437500
7032,23.437500
7033,27.343750
7034,27.343750
7035,27.343750
7036,27.343750
7037,31.250000
7038,31.250000
7039,31.250000
7040,31.250000
7041,35.156250
7042,35.156250
7043,35.156250
7044,35.156250
7045,35.156250
7046,39.062500
7047,39.062500
7048,39.062500
7049,39.062500
7050,39.062500
7051,42.968750
7052,42.968750
7053,42.968750
7054,42.968750
7055,46.875000
7056,46.875000
7057,46.875000
7058,46.875000
7059,50.781250
7060,50.781250
7061,50.781250
7062,50.781250
7063,50.781250
7064,50.781250
7065,54.687500
7066,54.687500
7067,54.687500
7068,58.593750
7069,58.593750
7070,58.593750
7071,58.593750
7072,58.593750
7073,62.500000
7074,58.593750
7075,62.500000
7076,62.500000
7077,62.500000
7078,66.406250
7079,66.406250
7080,66.406250
7081,66.406250
7082,66.406250
7083,66.406250
7084,70.312500
7085,70.312500
7086,70.312500
7087,70.312500
7088,70.312500
7089,74.218750
7090,74.218750
7091,74.218750
7092,74.218750
7093,74.218750
7094,74.218750
7095,78.125000
7096,78.125000
7097,78.125000
7098,78.125000
7099,82.031250
7100,82.031250
7101,82.031250
7102,82.031250
7103,82.031250
7104,82.031250
7105,82.031250
7106,85.937500
7107,85.937500
7108,85.937500
7109,85.937500
7110,85.937500
7111,85.937500
7112,89.843750
7113,89.843750
7114,89.843750
7115,89.843750
7116,89.843750
7117,89.843750
7118,93.750000
7119,93.750000
7120,93.750000
7121,93.750000
7122,93.750000
7123,93.750000
7124,93.750000
7125,97.656250
7126,97.656250
7127,97.656250
7128,97.656250
7129,97.656250
7130,101.562500
7131,101.562500
7132,101.562500
7133,101.562500
7134,101.562500
7135,101.562500
7136,101.562500
7137,101.562500
7138,105.468750
7139,105.468750
7140,105.468750
7141,105.468750
7142,105.468750
7143,105.468750
7144,105.468750
7145,105.468750
7146,109.375000
7147,109.375000
7148,109.375000
7149,109.375000
7150,109.375000
7151,109.375000
7152,109.375000
7153,109.375000
7154,113.281250
7155,113.281250
7156,113.281250
7157,113.281250
7158,113.281250
7159,113.281250
7160,113.281250
7161,113.281250
7162,113.281250
7163,113.281250
7164,113.281250
7165,117.187500
7166,117.187500
7167,117.187500
7168,117.187500
7169,117.187500
7170,117.187500
7171,117.187500
7172,117.187500
7173,117.187500
7174,117.187500
7175,121.093750
7176,121.093750
7177,121.093750
7178,121.093750
7179,121.093750
7180,121.093750
7181,121.093750
7182,121.093750
7183,121.093750
7184,121.093750
7185,121.093750
7186,125.000000
7187,125.000000
7188,125.000000
7189,125.000000
7190,125.000000
7191,125.000000
7192,125.000000
7193,125.000000
7194,125.000000
7195,125.000000
7196,125.000000
7197,125.000000
7198,128.906250
7199,125.000000
7200,128.906250
7201,128.906250
7202,128.906250
7203,128.906250
7204,128.906250
7205,128.906250
7206,128.906250
7207,128.906250
7208,128.906250
7209,128.906250
7210,128.906250
7211,128.906250
7212,128.906250
7213,128.906250
7214,128.906250
7215,128.906250
7216,128.906250
7217,128.906250
7218,132.812500
7219,132.812500
7220,132.812500
7221,128.906250
7222,132.812500
7223,128.906250
7224,132.812500
7225,128.906250
7226,132.812500
7227,132.812500
7228,132.812500
7229,132.812500
7230,132.812500
7231,132.812500
7232,132.812500
7233,132.812500
7234,132.812500
7235,132.812500
7236,132.812500
7237,132.812500
7238,132.812500
7239,132.812500
7240,132.812500
7241,132.812500
7242,132.812500
7243,132.812500
7244,132.812500
7245,132.812500
7246,132.812500
7247,132.812500
7248,132.812500
7249,132.812500
7250,132.812500
7251,132.812500
7252,132.812500
7253,132.812500
7254,132.812500
7255,132.812500
7256,132.812500
7257,132.812500
7258,132.812500
7259,132.812500
7260,132.812500
7261,132.812500
7262,132.812500
7263,132.812500
7264,132.812500
7265,128.906250
7266,132.812500
7267,132.812500
7268,132.812500
7269,132.812500
7270,132.812500
7271,132.812500
7272,132.812500
7273,132.812500
7274,132.812500
7275,128.906250
7276,128.906250
7277,128.906250
7278,128.906250
7279,132.812500
7280,128.906250
7281,128.906250
7282,128.906250
7283,128.906250
7284,128.906250
7285,128.906250
7286,128.906250
7287,128.906250
7288,128.906250
7289,128.906250
7290,128.906250
7291,128.906250
7292,128.906250
7293,128.906250
7294,128.906250
7295,125.000000
7296,128.906250
7297,125.000000
7298,125.000000
7299,125.000000
7300,125.000000
7301,125.000000
7302,125.000000
7303,125.000000
7304,125.000000
7305,125.000000
7306,125.000000
7307,125.000000
7308,125.000000
7309,125.000000
7310,121.093750
7311,121.093750
7312,121.093750
7313,121.093750
7314,121.093750
7315,121.093750
7316,121.093750
7317,121.093750
7318,121.093750
7319,121.093750
7320,121.093750
7321,117.187500
7322,121.093750
7323,117.187500
7324,117.187500
7325,117.187500
7326,117.187500
7327,117.187500
7328,117.187500
7329,117.187500
7330,117.187500
7331,117.187500
7332,117.187500
7333,113.281250
7334,113.281250
7335,113.281250
7336,113.281250
7337,113.281250
7338,113.281250
7339,113.281250
7340,113.281250
7341,113.281250
7342,109.375000
7343,109.375000
7344,109.375000
7345,109.375000
7346,109.375000
7347,109.375000
7348,109.375000
7349,109.375000
7350,109.375000
7351,105.468750
7352,105.468750
7353,105.468750
7354,105.468750
7355,105.468750
7356,105.468750
7357,101.562500
7358,101.562500
7359,101.562500
7360,101.562500
7361,101.562500
7362,101.562500
7363,101.562500
7364,101.562500
7365,97.656250
7366,97.656250
7367,97.656250
7368,97.656250
7369,97.656250
7370,97.656250
7371,93.750000
7372,93.750000
7373,93.750000
7374,93.750000
7375,93.750000
7376,93.750000
7377,93.750000
7378,93.750000
7379,89.843750
7380,89.843750
7381,89.843750
7382,89.843750
7383,85.937500
7384,85.937500
7385,85.937500
7386,85.937500
7387,85.937500
7388,85.937500
7389,82.031250
7390,82.031250
7391,82.031250
7392,82.031250
7393,82.031250
7394,82.031250
7395,78.125000
7396,78.125000
7397,78.125000
7398,78.125000
7399,78.125000
7400,78.125000
7401,74.218750
7402,74.218750
7403,74.218750
7404,74.218750
7405,74.218750
7406,70.312500
7407,70.312500
7408,70.312500
7409,70.312500
7410,70.312500
7411,66.406250
7412,66.406250
7413,66.406250
7414,66.406250
7415,66.406250
7416,62.500000
7417,62.500000
7418,62.500000
7419,62.500000
7420,62.500000
7421,58.593750
7422,58.593750
7423,58.593750
7424,58.593750
7425,54.687500
7426,54.687500
7427,54.687500
7428,54.687500
7429,54.687500
7430,50.781250
7431,50.781250
7432,50.781250
7433,50.781250
7434,46.875000
7435,46.875000
7436,46.875000
7437,46.875000
7438,46.875000
7439,42.968750
7440,42.968750
7441,42.968750
7442,42.968750
7443,39.062500
7444,39.062500
7445,39.062500
7446,39.062500
7447,39.062500
7448,35.156250
7449,35.156250
7450,35.156250
7451,31.250000
7452,31.250000
7453,31.250000
7454,31.250000
7455,31.250000
7456,27.343750
7457,27.343750
7458,27.343750
7459,27.343750
7460,23.437500
7461,23.437500
7462,23.437500
7463,19.531250
7464,19.531250
7465,19.531250
7466,19.531250
7467,19.531250
7468,15.625000
7469,15.625000
7470,15.625000
7471,15.625000
7472,11.718750
7473,11.718750
7474,11.718750
7475,11.718750
7476,7.812500
7477,7.812500
7478,7.812500
7479,7.812500
7480,3.906250
7481,3.906250
7482,3.906250
7483,3.906250
7484,0.000000
7485,0.000000
7486,0.000000
7487,0.000000
7488,-3.906250
7489,-3.906250
7490,-3.906250
7491,-7.812500
7492,-7.812500
7493,-7.812500
7494,-7.812500
7495,-7.812500
7496,-11.718750
7497,-11.718750
7498,-11.718750
7499,-15.625000
7500,-15.625000
7501,-15.625000
7502,-19.531250
7503,-19.531250
7504,-19.531250
7505,-19.531250
7506,-19.531250
7507,-23.437500
7508,-23.437500
7509,-23.437500
7510,-23.437500
7511,-27.343750
7512,-27.343750
7513,-27.343750
7514,-31.250000
7515,-31.250000
7516,-31.250000
7517,-31.250000
7518,-35.156250
7519,-35.156250
7520,-35.156250
7521,-35.156250
7522,-39.062500
7523,-39.062500
7524,-39.062500
7525,-42.968750
7526,-42.968750
7527,-42.968750
7528,-42.968750
7529,-46.875000
7530,-46.875000
7531,-46.875000
7532,-46.875000
7533,-50.781250
7534,-50.781250
7535,-50.781250
7536,-50.781250
7537,-54.687500
7538,-54.687500
7539,-54.687500
7540,-54.687500
7541,-58.593750
7542,-58.593750
7543,-58.593750
7544,-62.500000
7545,-62.500000
7546,-62.500000
7547,-62.500000
7548,-66.406250
7549,-66.406250
7550,-66.406250
7551,-66.406250
7552,-70.312500
7553,-70.312500
7554,-70.312500
7555,-70.312500
7556,-74.218750
7557,-74.218750
7558,-74.218750
7559,-74.218750
7560,-78.125000
7561,-78.125000
7562,-78.125000
7563,-78.125000
7564,-82.031250
7565,-82.031250
7566,-82.031250
7567,-82.031250
7568,-85.937500
7569,-85.937500
7570,-85.937500
7571,-85.937500
7572,-89.843750
7573,-89.843750
7574,-89.843750
7575,-89.843750
7576,-93.750000
7577,-93.750000
7578,-93.750000
7579,-93.750000
7580,-97.656250
7581,-97.656250
7582,-97.656250
7583,-101.562500
7584,-101.562500
7585,-101.562500
7586,-101.562500
7587,-101.562500
7588,-101.562500
7589,-105.468750
7590,-105.468750
7591,-105.468750
7592,-105.468750
7593,-109.375000
7594,-109.375000
7595,-109.375000
7596,-109.375000
7597,-113.281250
7598,-113.281250
7599,-113.281250
7600,-113.281250
7601,-117.187500
7602,-117.187500
7603,-117.187500
7604,-117.187500
7605,-121.093750
7606,-121.093750
7607,-121.093750
7608,-121.093750
7609,-121.093750
7610,-121.093750
7611,-125.000000
7612,-125.000000
7613,-125.000000
7614,-125.000000
7615,-128.906250
7616,-128.906250
7617,-128.906250
7618,-128.906250
7619,-128.906250
7620,-132.812500
7621,-132.812500
7622,-132.812500
7623,-132.812500
7624,-132.812500
7625,-132.812500
7626,-136.718750
7627,-136.718750
7628,-136.718750
7629,-140.625000
7630,-140.625000
7631,-140.625000
7632,-140.625000
7633,-144.531250
7634,-140.625000
7635,-140.625000
7636,-144.531250
7637,-144.531250
7638,-144.531250
7639,-144.531250
7640,-148.437500
7641,-144.531250
7642,-148.437500
7643,-148.437500
7644,-148.437500
7645,-152.343750
7646,-148.437500
7647,-148.437500
7648,-152.343750
7649,-152.343750
7650,-152.343750
7651,-152.343750
7652,-152.343750
7653,-152.343750
7654,-156.250000
7655,-156.250000
7656,-156.250000
7657,-156.250000
7658,-156.250000
7659,-156.250000
7660,-156.250000
7661,-156.250000
7662,-160.156250
7663,-160.156250
7664,-160.156250
7665,-160.156250
7666,-160.156250
7667,-160.156250
7668,-160.156250
7669,-164.062500
7670,-164.062500
7671,-164.062500
7672,-164.062500
7673,-164.062500
7674,-164.062500
7675,-164.062500
7676,-164.062500
7677,-164.062500
7678,-167.968750
7679,-167.968750
7680,-167.968750
7681,-167.968750
7682,-167.968750
7683,-167.968750
7684,-167.968750
7685,-167.968750
7686,-167.968750
7687,-171.875000
7688,-171.875000
7689,-171.875000
7690,-171.875000
7691,-171.875000
7692,-171.875000
7693,-171.875000
7694,-171.875000
7695,-171.875000
7696,-171.875000
7697,-175.781250
7698,-175.781250
7699,-175.781250
7700,-175.781250
7701,-175.781250
7702,-175.781250
7703,-175.781250
7704,-175.781250
7705,-175.781250
7706,-175.781250
7707,-175.781250
7708,-175.781250
7709,-175.781250
7710,-175.781250
7711,-175.781250
7712,-175.781250
7713,-179.687500
7714,-179.687500
7715,-175.781250
7716,-179.687500
7717,-179.687500
7718,-179.687500
7719,-179.687500
7720,-179.687500
7721,-179.687500
7722,-179.687500
7723,-179.687500
7724,-179.687500
7725,-179.687500
7726,-179.687500
7727,-179.687500
7728,-179.687500
7729,-179.687500
7730,-179.687500
7731,-179.687500
7732,-179.687500
7733,-179.687500
7734,-179.687500
7735,-179.687500
7736,-179.687500
7737,-179.687500
7738,-179.687500
7739,-179.687500
7740,-179.687500
7741,-179.687500
7742,-179.687500
7743,-179.687500
7744,-179.687500
7745,-179.687500
7746,-179.687500
7747,-179.687500
7748,-179.687500
7749,-179.687500
7750,-179.687500
7751,-179.687500
7752,-179.687500
7753,-179.687500
7754,-179.687500
7755,-179.687500
7756,-179.687500
7757,-179.687500
7758,-179.687500
7759,-179.687500
7760,-179.687500
7761,-179.687500
7762,-179.687500
7763,-179.687500
7764,-179.687500
7765,-179.687500
7766,-179.687500
7767,-179.687500
7768,-175.781250
7769,-175.781250
7770,-175.781250
7771,-175.781250
7772,-175.781250
7773,-175.781250
7774,-175.781250
7775,-175.781250
7776,-175.781250
7777,-175.781250
7778,-175.781250
7779,-175.781250
7780,-175.781250
7781,-175.781250
7782,-175.781250
7783,-171.875000
7784,-171.875000
7785,-171.875000
7786,-171.875000
7787,-171.875000
7788,-171.875000
7789,-171.875000
7790,-171.875000
7791,-171.875000
7792,-171.875000
7793,-171.875000
7794,-167.968750
7795,-167.968750
7796,-167.968750
7797,-167.968750
7798,-167.968750
7799,-167.968750
7800,-167.968750
7801,-167.968750
7802,-167.968750
7803,-167.968750
7804,-164.062500
7805,-164.062500
7806,-164.062500
7807,-164.062500
7808,-164.062500
7809,-164.062500
7810,-164.062500
7811,-164.062500
7812,-164.062500
7813,-160.156250
7814,-160.156250
7815,-160.156250
7816,-160.156250
7817,-160.156250
7818,-160.156250
7819,-156.250000
7820,-156.250000
7821,-156.250000
7822,-156.250000
7823,-156.250000
7824,-156.250000
7825,-156.250000
7826,-152.343750
7827,-152.343750
7828,-152.343750
7829,-152.343750
7830,-152.343750
7831,-152.343750
7832,-152.343750
7833,-148.437500
7834,-148.437500
7835,-148.437500
7836,-148.437500
7837,-148.437500
7838,-148.437500
7839,-144.531250
7840,-144.531250
7841,-144.531250
7842,-144.531250
7843,-144.531250
7844,-140.625000
7845,-140.625000
7846,-140.625000
7847,-140.625000
7848,-140.625000
7849,-140.625000
7850,-136.718750
7851,-136.718750
7852,-136.718750
7853,-136.718750
7854,-136.718750
7855,-132.812500
7856,-132.812500
7857,-132.812500
7858,-132.812500
7859,-132.812500
7860,-132.812500
7861,-128.906250
7862,-128.906250
7863,-128.906250
7864,-128.906250
7865,-125.000000
7866,-125.000000
7867,-125.000000
7868,-125.000000
7869,-125.000000
7870,-121.093750
7871,-121.093750
7872,-121.093750
7873,-121.093750
7874,-121.093750
7875,-117.187500
7876,-117.187500
7877,-117.187500
7878,-117.187500
7879,-113.281250
7880,-113.281250
7881,-113.281250
7882,-113.281250
7883,-113.281250
7884,-109.375000
7885,-109.375000
7886,-109.375000
7887,-109.375000
7888,-105.468750
7889,-105.468750
7890,-105.468750
7891,-105.468750
7892,-105.468750
7893,-101.562500
7894,-101.562500
7895,-101.562500
7896,-97.656250
7897,-97.656250
7898,-97.656250
7899,-97.656250
7900,-97.656250
7901,-97.656250
7902,-93.750000
7903,-93.750000
7904,-93.750000
7905,-89.843750
7906,-89.843750
7907,-89.843750
7908,-89.843750
7909,-85.937500
7910,-85.937500
7911,-85.937500
7912,-85.937500
7913,-82.031250
7914,-82.031250
7915,-82.031250
7916,-82.031250
7917,-78.125000
7918,-78.125000
7919,-78.125000
7920,-78.125000
7921,-74.218750
7922,-74.218750
7923,-74.218750
7924,-74.218750
7925,-70.312500
7926,-70.312500
7927,-70.312500
7928,-70.312500
7929,-66.406250
7930,-66.406250
7931,-66.406250
7932,-66.406250
7933,-62.500000
7934,-62.500000
7935,-62.500000
7936,-58.593750
7937,-58.593750
7938,-58.593750
7939,-58.593750
7940,-54.687500
7941,-54.687500
7942,-54.687500
7943,-54.687500
7944,-50.781250
7945,-50.781250
7946,-50.781250
7947,-50.781250
7948,-46.875000
7949,-46.875000
7950,-46.875000
7951,-46.875000
7952,-42.968750
7953,-42.968750
7954,-39.062500
7955,-39.062500
7956,-39.062500
7957,-39.062500
7958,-39.062500
7959,-35.156250
7960,-35.156250
7961,-35.156250
7962,-35.156250
7963,-31.250000
7964,-31.250000
7965,-31.250000
7966,-31.250000
7967,-27.343750
7968,-27.343750
7969,-27.343750
7970,-27.343750
7971,-23.437500
7972,-23.437500
7973,-23.437500
7974,-23.437500
7975,-19.531250
7976,-19.531250
7977,-19.531250
7978,-19.531250
7979,-15.625000
7980,-15.625000
7981,-15.625000
7982,-11.718750
7983,-11.718750
7984,-11.718750
7985,-11.718750
7986,-7.812500
7987,-7.812500
7988,-7.812500
7989,-7.812500
7990,-7.812500
7991,-3.906250
7992,-3.906250
7993,-3.906250
7994,0.000000
7995,0.000000
7996,0.000000
7997,0.000000
7998,3.906250
7999,3.906250
8000,3.906250
8001,3.906250
8002,3.906250
8003,7.812500
8004,7.812500
8005,7.812500
8006,11.718750
8007,11.718750
8008,11.718750
8009,11.718750
8010,11.718750
8011,15.625000
8012,15.625000
8013,15.625000
8014,19.531250
8015,19.531250
8016,19.531250
8017,19.531250
8018,23.437500
8019,23.437500
8020,23.437500
8021,23.437500
8022,27.343750
8023,27.343750
8024,27.343750
8025,27.343750
8026,31.250000
8027,31.250000
8028,31.250000
8029,31.250000
8030,31.250000
8031,35.156250
8032,35.156250
8033,35.156250
8034,35.156250
8035,39.062500
8036,39.062500
8037,39.062500
8038,39.062500
8039,39.062500
8040,42.968750
8041,42.968750
8042,42.968750
8043,42.968750
8044,42.968750
8045,46.875000
8046,46.875000
8047,46.875000
8048,46.875000
8049,50.781250
8050,50.781250
8051,50.781250
8052,50.781250
8053,54.687500
8054,54.687500
8055,54.687500
8056,54.687500
8057,54.687500
8058,54.687500
8059,58.593750
8060,58.593750
8061,58.593750
8062,58.593750
8063,62.500000
8064,62.500000
8065,62.500000
8066,62.500000
8067,62.500000
8068,62.500000
8069,66.406250
8070,66.406250
8071,66.406250
8072,66.406250
8073,70.312500
8074,70.312500
8075,70.312500
8076,70.312500
8077,70.312500
8078,74.218750
8079,74.218750
8080,74.218750
8081,74.218750
8082,74.218750
8083,74.218750
8084,78.125000
8085,78.125000
8086,78.125000
8087,78.125000
8088,78.125000
8089,82.031250
8090,82.031250
8091,82.031250
8092,82.031250
8093,82.031250
8094,82.031250
8095,85.937500
8096,85.937500
8097,85.937500
8098,85.937500
8099,85.937500
8100,85.937500
8101,85.937500
8102,89.843750
8103,89.843750
8104,89.843750
8105,89.843750
8106,89.843750
8107,89.843750
8108,93.750000
8109,93.750000
8110,93.750000
8111,93.750000
8112,93.750000
8113,97.656250
8114,97.656250
8115,97.656250
8116,97.656250
8117,97.656250
8118,97.656250
8119,97.656250
8120,97.656250
8121,97.656250
8122,101.562500
8123,101.562500
8124,101.562500
8125,101.562500
8126,101.562500
8127,105.468750
8128,105.468750
8129,105.468750
8130,105.468750
8131,105.468750
8132,105.468750
8133,105.468750
8134,105.468750
8135,109.375000
8136,109.375000
8137,109.375000
8138,109.375000
8139,109.375000
8140,109.375000
8141,109.375000
8142,109.375000
8143,109.375000
8144,113.281250
8145,113.281250
8146,113.281250
8147,113.281250
8148,113.281250
8149,113.281250
8150,113.281250
8151,113.281250
8152,113.281250
8153,117.187500
8154,117.187500
8155,117.187500
8156,117.187500
8157,117.187500
8158,117.187500
8159,117.187500
8160,117.187500
8161,117.187500
8162,117.187500
8163,117.187500
8164,121.093750
8165,121.093750
8166,121.093750
8167,121.093750
8168,121.093750
8169,121.093750
8170,121.093750
8171,121.093750
8172,121.093750
8173,121.093750
8174,125.000000
8175,125.000000
8176,121.093750
8177,125.000000
8178,125.000000
8179,125.000000
8180,125.000000
8181,125.000000
8182,125.000000
8183,125.000000
8184,125.000000
8185,125.000000
8186,125.000000
8187,125.000000
8188,125.000000
8189,128.906250
8190,125.000000
8191,128.906250
8192,128.906250
8193,128.906250
8194,128.906250
8195,128.906250
8196,128.906250
8197,128.906250
8198,128.906250
8199,128.906250
8200,128.906250
8201,128.906250
8202,128.906250
8203,128.906250
8204,128.906250
8205,128.906250
8206,128.906250
8207,128.906250
8208,128.906250
8209,128.906250
8210,128.906250
8211,128.906250
8212,132.812500
8213,132.812500
8214,132.812500
8215,132.812500
8216,132.812500
8217,132.812500
8218,132.812500
8219,132.812500
8220,132.812500
8221,132.812500
8222,132.812500
8223,132.812500
8224,132.812500
8225,132.812500
8226,132.812500
8227,132.812500
8228,132.812500
8229,132.812500
8230,132.812500
8231,132.812500
8232,132.812500
8233,132.812500
8234,132.812500
8235,132.812500
8236,132.812500
8237,132.812500
8238,132.812500
8239,132.812500
8240,132.812500
8241,132.812500
8242,132.812500
8243,132.812500
8244,132.812500
8245,132.812500
8246,132.812500
8247,132.812500
8248,132.812500
8249,132.812500
8250,132.812500
8251,132.812500
8252,132.812500
8253,132.812500
8254,132.812500
8255,132.812500
8256,132.812500
8257,128.906250
8258,132.812500
8259,128.906250
8260,132.812500
8261,132.812500
8262,132.812500
8263,132.812500
8264,132.812500
8265,128.906250
8266,128.906250
8267,128.906250
8268,128.906250
8269,128.906250
8270,128.906250
8271,128.906250
8272,128.906250
8273,128.906250
8274,128.906250
8275,128.906250
8276,128.906250
8277,128.906250
8278,128.906250
8279,128.906250
8280,128.906250
8281,128.906250
8282,128.906250
8283,128.906250
8284,128.906250
8285,128.906250
8286,128.906250
8287,125.000000
8288,128.906250
8289,125.000000
8290,125.000000
8291,125.000000
8292,125.000000
8293,125.000000
8294,125.000000
8295,125.000000
8296,125.000000
8297,125.000000
8298,125.000000
8299,125.000000
8300,121.093750
8301,125.000000
8302,125.000000
8303,121.093750
8304,121.093750
8305,121.093750
8306,121.093750
8307,121.093750
8308,121.093750
8309,121.093750
8310,121.093750
8311,121.093750
8312,121.093750
8313,117.187500
8314,121.093750
8315,117.187500
8316,117.187500
8317,117.187500
8318,117.187500
8319,117.187500
8320,117.187500
8321,117.187500
8322,117.187500
8323,113.281250
8324,113.281250
8325,113.281250
8326,113.281250
8327,113.281250
8328,113.281250
8329,113.281250
8330,113.281250
8331,113.281250
8332,109.375000
8333,109.375000
8334,109.375000
8335,109.375000
8336,109.375000
8337,109.375000
8338,109.375000
8339,109.375000
8340,105.468750
8341,105.468750
8342,105.468750
8343,105.468750
8344,105.468750
8345,105.468750
8346,105.468750
8347,101.562500
8348,101.562500
8349,101.562500
8350,101.562500
8351,101.562500
8352,101.562500
8353,101.562500
8354,101.562500
8355,97.656250
8356,97.656250
8357,97.656250
8358,97.656250
8359,97.656250
8360,97.656250
8361,97.656250
8362,93.750000
8363,93.750000
8364,93.750000
8365,93.750000
8366,93.750000
8367,93.750000
8368,89.843750
8369,89.843750
8370,89.843750
8371,89.843750
8372,89.843750
8373,89.843750
8374,89.843750
8375,85.937500
8376,85.937500
8377,85.937500
8378,85.937500
8379,85.937500
8380,82.031250
8381,82.031250
8382,82.031250
8383,82.031250
8384,82.031250
8385,82.031250
8386,78.125000
8387,78.125000
8388,78.125000
8389,78.125000
8390,78.125000
8391,74.218750
8392,74.218750
8393,74.218750
8394,74.218750
8395,74.218750
8396,70.312500
8397,70.312500
8398,70.312500
8399,70.312500
8400,70.312500
8401,66.406250
8402,66.406250
8403,66.406250
8404,66.406250
8405,66.406250
8406,66.406250
8407,62.500000
8408,62.500000
8409,62.500000
8410,58.593750
8411,58.593750
8412,58.593750
8413,58.593750
8414,58.593750
8415,58.593750
8416,54.687500
8417,54.687500
8418,54.687500
8419,54.687500
8420,54.687500
8421,50.781250
8422,50.781250
8423,50.781250
8424,50.781250
8425,46.875000
8426,46.875000
8427,46.875000
8428,46.875000
8429,42.968750
8430,42.968750
8431,42.968750
8432,42.968750
8433,42.968750
8434,39.062500
8435,39.062500
8436,39.062500
8437,39.062500
8438,35.156250
8439,35.156250
8440,35.156250
8441,35.156250
8442,35.156250
8443,31.250000
8444,31.250000
8445,31.250000
8446,31.250000
8447,27.343750
8448,27.343750
8449,27.343750
8450,23.437500
8451,23.437500
8452,23.437500
8453,23.437500
8454,23.437500
8455,19.531250
8456,19.531250
8457,19.531250
8458,15.625000
8459,15.625000
8460,15.625000
8461,15.625000
8462,15.625000
8463,11.718750
8464,11.718750
8465,11.718750
8466,7.812500
8467,7.812500
8468,7.812500
8469,7.812500
8470,3.906250
8471,3.906250
8472,3.906250
8473,3.906250
8474,0.000000
8475,0.000000
8476,0.000000
8477,0.000000
8478,-3.906250
8479,0.000000
8480,-3.906250
8481,-3.906250
8482,-7.812500
8483,-7.812500
8484,-7.812500
8485,-7.812500
8486,-11.718750
8487,-11.718750
8488,-11.718750
8489,-15.625000
8490,-15.625000
8491,-15.625000
8492,-15.625000
8493,-19.531250
8494,-19.531250
8495,-19.531250
8496,-19.531250
8497,-23.437500
8498,-23.437500
8499,-23.437500
8500,-27.343750
8501,-27.343750
8502,-27.343750
8503,-27.343750
8504,-31.250000
8505,-31.250000
8506,-31.250000
8507,-31.250000
8508,-35.156250
8509,-35.156250
8510,-35.156250
8511,-39.062500
8512,-39.062500
8513,-39.062500
8514,-39.062500
8515,-42.968750
8516,-42.968750
8517,-42.968750
8518,-42.968750
8519,-46.875000
8520,-46.875000
8521,-46.875000
8522,-46.875000
8523,-46.875000
8524,-50.781250
8525,-50.781250
8526,-50.781250
8527,-54.687500
8528,-54.687500
8529,-54.687500
8530,-54.687500
8531,-58.593750
8532,-58.593750
8533,-58.593750
8534,-62.500000
8535,-62.500000
8536,-62.500000
8537,-62.500000
8538,-62.500000
8539,-66.406250
8540,-66.406250
8541,-66.406250
8542,-70.312500
8543,-70.312500
8544,-70.312500
8545,-70.312500
8546,-74.218750
8547,-74.218750
8548,-74.218750
8549,-78.125000
8550,-78.125000
8551,-78.125000
8552,-78.125000
8553,-78.125000
8554,-82.031250
8555,-82.031250
8556,-82.031250
8557,-82.031250
8558,-85.937500
8559,-85.937500
8560,-85.937500
8561,-85.937500
8562,-89.843750
8563,-89.843750
8564,-89.843750
8565,-93.750000
8566,-93.750000
8567,-93.750000
8568,-93.750000
8569,-97.656250
8570,-97.656250
8571,-97.656250
8572,-97.656250
8573,-97.656250
8574,-97.656250
8575,-101.562500
8576,-101.562500
8577,-101.562500
8578,-105.468750
8579,-105.468750
8580,-105.468750
8581,-105.468750
8582,-105.468750
8583,-109.375000
8584,-109.375000
8585,-109.375000
8586,-109.375000
8587,-113.281250
8588,-113.281250
8589,-113.281250
8590,-113.281250
8591,-113.281250
8592,-117.187500
8593,-117.187500
8594,-117.187500
8595,-117.187500
8596,-121.093750
8597,-121.093750
8598,-121.093750
8599,-121.093750
8600,-121.093750
8601,-125.000000
8602,-125.000000
8603,-125.000000
8604,-125.000000
8605,-125.000000
8606,-128.906250
8607,-128.906250
8608,-128.906250
8609,-128.906250
8610,-132.812500
8611,-132.812500
8612,-132.812500
8613,-132.812500
8614,-132.812500
8615,-136.718750
8616,-136.718750
8617,-136.718750
8618,-136.718750
8619,-136.718750
8620,-140.625000
8621,-140.625000
8622,-140.625000
8623,-140.625000
8624,-140.625000
8625,-140.625000
8626,-144.531250
8627,-144.531250
8628,-144.531250
8629,-144.531250
8630,-144.531250
8631,-148.437500
8632,-148.437500
8633,-148.437500
8634,-148.437500
8635,-148.437500
8636,-148.437500
8637,-152.343750
8638,-152.343750
8639,-152.343750
8640,-152.343750
8641,-152.343750
8642,-152.343750
8643,-152.343750
8644,-156.250000
8645,-156.250000
8646,-156.250000
8647,-156.250000
8648,-156.250000
8649,-156.250000
8650,-160.156250
8651,-160.156250
8652,-160.156250
8653,-160.156250
8654,-160.156250
8655,-160.156250
8656,-160.156250
8657,-164.062500
8658,-164.062500
8659,-164.062500
8660,-164.062500
8661,-164.062500
8662,-164.062500
8663,-164.062500
8664,-164.062500
8665,-164.062500
8666,-167.968750
8667,-167.968750
8668,-167.968750
8669,-167.968750
8670,-167.968750
8671,-167.968750
8672,-167.968750
8673,-167.968750
8674,-167.968750
8675,-167.968750
8676,-167.968750
8677,-171.875000
8678,-171.875000
8679,-171.875000
8680,-171.875000
8681,-171.875000
8682,-171.875000
8683,-171.875000
8684,-171.875000
8685,-171.875000
8686,-175.781250
8687,-175.781250
8688,-175.781250
8689,-175.781250
8690,-175.781250
8691,-175.781250
8692,-175.781250
8693,-175.781250
8694,-175.781250
8695,-175.781250
8696,-175.781250
8697,-175.781250
8698,-175.781250
8699,-179.687500
8700,-175.781250
8701,-179.687500
8702,-175.781250
8703,-175.781250
8704,-179.687500
8705,-179.687500
8706,-179.687500
8707,-179.687500
8708,-179.687500
8709,-179.687500
8710,-179.687500
8711,-179.687500
8712,-179.687500
8713,-179.687500
8714,-179.687500
8715,-179.687500
8716,-179.687500
8717,-179.687500
8718,-179.687500
8719,-179.687500
8720,-179.687500
8721,-179.687500
8722,-179.687500
8723,-179.687500
8724,-179.687500
8725,-179.687500
8726,-179.687500
8727,-179.687500
8728,-179.687500
8729,-179.687500
8730,-179.687500
8731,-179.687500
8732,-179.687500
8733,-179.687500
8734,-179.687500
8735,-179.687500
8736,-179.687500
8737,-179.687500
8738,-179.687500
8739,-179.687500
8740,-179.687500
8741,-179.687500
8742,-179.687500
8743,-179.687500
8744,-179.687500
8745,-179.687500
8746,-179.687500
8747,-179.687500
8748,-179.687500
8749,-179.687500
8750,-179.687500
8751,-179.687500
8752,-179.687500
8753,-179.687500
8754,-179.687500
8755,-179.687500
8756,-179.687500
8757,-179.687500
8758,-179.687500
8759,-179.687500
8760,-175.781250
8761,-175.781250
8762,-175.781250
8763,-175.781250
8764,-175.781250
8765,-175.781250
8766,-175.781250
8767,-175.781250
8768,-175.781250
8769,-175.781250
8770,-175.781250
8771,-175.781250
8772,-175.781250
8773,-171.875000
8774,-171.875000
8775,-171.875000
8776,-171.875000
8777,-171.875000
8778,-171.875000
8779,-171.875000
8780,-171.875000
8781,-171.875000
8782,-171.875000
8783,-171.875000
8784,-171.875000
8785,-167.968750
8786,-167.968750
8787,-167.968750
8788,-167.968750
8789,-167.968750
8790,-167.968750
8791,-167.968750
8792,-167.968750
8793,-167.968750
8794,-164.062500
8795,-167.968750
8796,-164.062500
8797,-164.062500
8798,-164.062500
8799,-164.062500
8800,-164.062500
8801,-164.062500
8802,-160.156250
8803,-160.156250
8804,-160.156250
8805,-160.156250
8806,-156.250000
8807,-160.156250
8808,-160.156250
8809,-160.156250
8810,-156.250000
8811,-156.250000
8812,-156.250000
8813,-152.343750
8814,-156.250000
8815,-156.250000
8816,-152.343750
8817,-152.343750
8818,-152.343750
8819,-152.343750
8820,-152.343750
8821,-152.343750
8822,-148.437500
8823,-148.437500
8824,-148.437500
8825,-148.437500
8826,-148.437500
8827,-148.437500
8828,-144.531250
8829,-144.531250
8830,-144.531250
8831,-144.531250
8832,-144.531250
8833,-144.531250
8834,-140.625000
8835,-140.625000
8836,-140.625000
8837,-140.625000
8838,-140.625000
8839,-136.718750
8840,-136.718750
8841,-136.718750
8842,-136.718750
8843,-136.718750
8844,-136.718750
8845,-136.718750
8846,-132.812500
8847,-132.812500
8848,-132.812500
8849,-132.812500
8850,-128.906250
8851,-128.906250
8852,-128.906250
8853,-128.906250
8854,-128.906250
8855,-125.000000
8856,-125.000000
8857,-125.000000
8858,-125.000000
8859,-125.000000
8860,-121.093750
8861,-121.093750
8862,-121.093750
8863,-121.093750
8864,-117.187500
8865,-117.187500
8866,-117.187500
8867,-117.187500
8868,-117.187500
8869,-113.281250
8870,-113.281250
8871,-113.281250
8872,-113.281250
8873,-113.281250
8874,-109.375000
8875,-109.375000
8876,-109.375000
8877,-105.468750
8878,-105.468750
8879,-105.468750
8880,-105.468750
8881,-105.468750
8882,-101.562500
8883,-101.562500
8884,-101.562500
8885,-101.562500
8886,-97.656250
8887,-97.656250
8888,-97.656250
8889,-93.750000
8890,-93.750000
8891,-93.750000
8892,-93.750000
8893,-93.750000
8894,-93.750000
8895,-89.843750
8896,-89.843750
8897,-89.843750
8898,-89.843750
8899,-85.937500
8900,-85.937500
8901,-85.937500
8902,-82.031250
8903,-85.937500
8904,-82.031250
8905,-82.031250
8906,-82.031250
8907,-78.125000
8908,-78.125000
8909,-78.125000
8910,-74.218750
8911,-74.218750
8912,-74.218750
8913,-74.218750
8914,-74.218750
8915,-70.312500
8916,-70.312500
8917,-70.312500
8918,-70.312500
8919,-66.406250
8920,-66.406250
8921,-66.406250
8922,-62.500000
8923,-62.500000
8924,-62.500000
8925,-62.500000
8926,-62.500000
8927,-58.593750
8928,-58.593750
8929,-58.593750
8930,-54.687500
8931,-54.687500
8932,-54.687500
8933,-54.687500
8934,-50.781250
8935,-50.781250
8936,-50.781250
8937,-50.781250
8938,-46.875000
8939,-46.875000
8940,-46.875000
8941,-46.875000
8942,-42.968750
8943,-42.968750
8944,-42.968750
8945,-42.968750
8946,-39.062500
8947,-39.062500
8948,-39.062500
8949,-39.062500
8950,-35.156250
8951,-35.156250
8952,-35.156250
8953,-31.250000
8954,-31.250000
8955,-31.250000
8956,-31.250000
8957,-27.343750
8958,-27.343750
8959,-27.343750
8960,-23.437500
8961,-23.437500
8962,-23.437500
8963,-23.437500
8964,-19.531250
8965,-19.531250
8966,-19.531250
8967,-19.531250
8968,-15.625000
8969,-15.625000
8970,-15.625000
8971,-15.625000
8972,-11.718750
8973,-11.718750
8974,-11.718750
8975,-11.718750
8976,-11.718750
8977,-7.812500
8978,-7.812500
8979,-7.812500
8980,-3.906250
8981,-3.906250
8982,-3.906250
8983,-3.906250
8984,0.000000
8985,0.000000
8986,0.000000
8987,0.000000
8988,3.906250
8989,3.906250
8990,3.906250
8991,7.812500
8992,7.812500
8993,7.812500
8994,7.812500
8995,7.812500
8996,11.718750
8997,11.718750
8998,11.718750
8999,11.718750
9000,15.625000
9001,15.625000
9002,15.625000
9003,15.625000
9004,19.531250
9005,19.531250
9006,19.531250
9007,19.531250
9008,23.437500
9009,23.437500
9010,23.437500
9011,23.437500
9012,27.343750
9013,27.343750
9014,27.343750
9015,27.343750
9016,31.250000
9017,31.250000
9018,31.250000
9019,31.250000
9020,31.250000
9021,35.156250
9022,35.156250
9023,35.156250
9024,35.156250
9025,39.062500
9026,39.062500
9027,39.062500
9028,39.062500
9029,39.062500
9030,42.968750
9031,42.968750
9032,42.968750
9033,42.968750
9034,46.875000
9035,46.875000
9036,46.875000
9037,46.875000
9038,46.875000
9039,50.781250
9040,50.781250
9041,50.781250
9042,54.687500
9043,50.781250
9044,54.687500
9045,54.687500
9046,54.687500
9047,54.687500
9048,58.593750
9049,58.593750
9050,58.593750
9051,58.593750
9052,58.593750
9053,62.500000
9054,62.500000
9055,62.500000
9056,62.500000
9057,62.500000
9058,66.406250
9059,66.406250
9060,66.406250
9061,66.406250
9062,66.406250
9063,70.312500
9064,70.312500
9065,70.312500
9066,70.312500
9067,74.218750
9068,74.218750
9069,74.218750
9070,74.218750
9071,74.218750
9072,74.218750
9073,78.125000
9074,78.125000
9075,78.125000
9076,78.125000
9077,78.125000
9078,78.125000
9079,82.031250
9080,82.031250
9081,82.031250
9082,82.031250
9083,82.031250
9084,85.937500
9085,85.937500
9086,85.937500
9087,85.937500
9088,85.937500
9089,85.937500
9090,89.843750
9091,89.843750
9092,89.843750
9093,89.843750
9094,89.843750
9095,89.843750
9096,93.750000
9097,93.750000
9098,93.750000
9099,93.750000
9100,93.750000
9101,93.750000
9102,93.750000
9103,97.656250
9104,97.656250
9105,97.656250
9106,97.656250
9107,97.656250
9108,97.656250
9109,97.656250
9110,101.562500
9111,101.562500
9112,101.562500
9113,101.562500
9114,101.562500
9115,101.562500
9116,101.562500
9117,105.468750
9118,105.468750
9119,105.468750
9120,105.468750
9121,105.468750
9122,105.468750
9123,109.375000
9124,109.375000
9125,109.375000
9126,109.375000
9127,109.375000
9128,109.375000
9129,109.375000
9130,109.375000
9131,109.375000
9132,113.281250
9133,113.281250
9134,113.281250
9135,113.281250
9136,113.281250
9137,113.281250
9138,113.281250
9139,113.281250
9140,113.281250
9141,113.281250
9142,117.187500
9143,117.187500
9144,117.187500
9145,117.187500
9146,117.187500
9147,117.187500
9148,117.187500
9149,117.187500
9150,117.187500
9151,117.187500
9152,121.093750
9153,117.187500
9154,121.093750
9155,121.093750
9156,121.093750
9157,121.093750
9158,121.093750
9159,121.093750
9160,121.093750
9161,121.093750
9162,125.000000
9163,121.093750
9164,121.093750
9165,121.093750
9166,125.000000
9167,125.000000
9168,125.000000
9169,125.000000
9170,125.000000
9171,125.000000
9172,125.000000
9173,125.000000
9174,125.000000
9175,125.000000
9176,125.000000
9177,125.000000
9178,125.000000
9179,128.906250
9180,128.906250
9181,128.906250
9182,128.906250
9183,128.906250
9184,128.906250
9185,128.906250
9186,128.906250
9187,128.906250
9188,128.906250
9189,128.906250
9190,128.906250
9191,128.906250
9192,128.906250
9193,128.906250
9194,128.906250
9195,128.906250
9196,128.906250
9197,128.906250
9198,132.812500
9199,132.812500
9200,132.812500
9201,128.906250
9202,132.812500
9203,132.812500
9204,132.812500
9205,132.812500
9206,132.812500
9207,132.812500
9208,132.812500
9209,132.812500
9210,132.812500
9211,132.812500
9212,132.812500
9213,132.812500
9214,132.812500
9215,132.812500
9216,132.812500
9217,128.906250
9218,132.812500
9219,132.812500
9220,132.812500
9221,132.812500
9222,132.812500
9223,132.812500
9224,132.812500
9225,132.812500
9226,132.812500
9227,132.812500
9228,132.812500
9229,132.812500
9230,132.812500
9231,132.812500
9232,132.812500
9233,132.812500
9234,132.812500
9235,132.812500
9236,132.812500
9237,132.812500
9238,132.812500
9239,132.812500
9240,132.812500
9241,132.812500
9242,132.812500
9243,132.812500
9244,132.812500
9245,132.812500
9246,132.812500
9247,132.812500
9248,132.812500
9249,132.812500
9250,132.812500
9251,132.812500
9252,132.812500
9253,132.812500
9254,128.906250
9255,128.906250
9256,128.906250
9257,128.906250
9258,128.906250
9259,128.906250
9260,128.906250
9261,128.906250
9262,128.906250
9263,128.906250
9264,128.906250
9265,128.906250
9266,128.906250
9267,128.906250
9268,128.906250
9269,128.906250
9270,128.906250
9271,128.906250
9272,128.906250
9273,128.906250
9274,128.906250
9275,125.000000
9276,128.906250
9277,125.000000
9278,125.000000
9279,125.000000
9280,125.000000
9281,125.000000
9282,125.000000
9283,125.000000
9284,125.000000
9285,125.000000
9286,125.000000
9287,125.000000
9288,125.000000
9289,125.000000
9290,125.000000
9291,121.093750
9292,121.093750
9293,121.093750
9294,121.093750
9295,121.093750
9296,121.093750
9297,121.093750
9298,121.093750
9299,121.093750
9300,121.093750
9301,121.093750
9302,121.093750
9303,117.187500
9304,117.187500
9305,117.187500
9306,117.187500
9307,117.187500
9308,117.187500
9309,117.187500
9310,117.187500
9311,113.281250
9312,113.281250
9313,113.281250
9314,113.281250
9315,113.281250
9316,113.281250
9317,113.281250
9318,113.281250
9319,113.281250
9320,113.281250
9321,109.375000
9322,109.375000
9323,109.375000
9324,109.375000
9325,109.375000
9326,109.375000
9327,109.375000
9328,109.375000
9329,109.375000
9330,105.468750
9331,105.468750
9332,105.468750
9333,105.468750
9334,105.468750
9335,105.468750
9336,105.468750
9337,105.468750
9338,101.562500
9339,101.562500
9340,101.562500
9341,101.562500
9342,101.562500
9343,101.562500
9344,101.562500
9345,97.656250
9346,97.656250
9347,97.656250
9348,97.656250
9349,97.656250
9350,97.656250
9351,93.750000
9352,93.750000
9353,93.750000
9354,93.750000
9355,93.750000
9356,93.750000
9357,89.843750
9358,89.843750
9359,89.843750
9360,89.843750
9361,89.843750
9362,89.843750
9363,85.937500
9364,85.937500
9365,85.937500
9366,85.937500
9367,85.937500
9368,85.937500
9369,85.937500
9370,82.031250
9371,82.031250
9372,82.031250
9373,82.031250
9374,82.031250
9375,78.125000
9376,78.125000
9377,78.125000
9378,78.125000
9379,78.125000
9380,78.125000
9381,74.218750
9382,74.218750
9383,74.218750
9384,74.218750
9385,70.312500
9386,70.312500
9387,70.312500
9388,70.312500
9389,70.312500
9390,70.312500
9391,66.406250
9392,66.406250
9393,66.406250
9394,66.406250
9395,62.500000
9396,62.500000
9397,62.500000
9398,62.500000
9399,62.500000
9400,62.500000
9401,58.593750
9402,58.593750
9403,58.593750
9404,58.593750
9405,54.687500
9406,54.687500
9407,54.687500
9408,54.687500
9409,54.687500
9410,50.781250
9411,50.781250
9412,50.781250
9413,50.781250
9414,46.875000
9415,46.875000
9416,46.875000
9417,42.968750
9418,42.968750
9419,42.968750
9420,42.968750
9421,42.968750
9422,42.968750
9423,39.062500
9424,39.062500
9425,39.062500
9426,39.062500
9427,35.156250
9428,35.156250
9429,35.156250
9430,35.156250
9431,35.156250
9432,31.250000
9433,31.250000
9434,31.250000
9435,31.250000
9436,27.343750
9437,27.343750
9438,27.343750
9439,27.343750
9440,27.343750
9441,23.437500
9442,23.437500
9443,23.437500
9444,19.531250
9445,19.531250
9446,19.531250
9447,19.531250
9448,15.625000
9449,15.625000
9450,15.625000
9451,15.625000
9452,11.718750
9453,11.718750
9454,11.718750
9455,7.812500
9456,7.812500
9457,7.812500
9458,7.812500
9459,3.906250
9460,3.906250
9461,3.906250
9462,3.906250
9463,0.000000
9464,0.000000
9465,0.000000
9466,0.000000
9467,-3.906250
9468,-3.906250
9469,-3.906250
9470,-3.906250
9471,-7.812500
9472,-7.812500
9473,-7.812500
9474,-7.812500
9475,-11.718750
9476,-11.718750
9477,-11.718750
9478,-15.625000
9479,-15.625000
9480,-15.625000
9481,-15.625000
9482,-15.625000
9483,-19.531250
9484,-19.531250
9485,-19.531250
9486,-19.531250
9487,-23.437500
9488,-23.437500
9489,-23.437500
9490,-27.343750
9491,-27.343750
9492,-27.343750
9493,-27.343750
9494,-31.250000
9495,-31.250000
9496,-31.250000
9497,-35.156250
9498,-35.156250
9499,-35.156250
9500,-35.156250
9501,-39.062500
9502,-39.062500
9503,-39.062500
9504,-39.062500
9505,-42.968750
9506,-42.968750
9507,-42.968750
9508,-42.968750
9509,-46.875000
9510,-46.875000
9511,-46.875000
9512,-46.875000
9513,-50.781250
9514,-50.781250
9515,-50.781250
9516,-54.687500
9517,-54.687500
9518,-54.687500
9519,-54.687500
9520,-58.593750
9521,-58.593750
9522,-58.593750
9523,-62.500000
9524,-62.500000
9525,-62.500000
9526,-62.500000
9527,-66.406250
9528,-66.406250
9529,-66.406250
9530,-66.406250
9531,-70.312500
9532,-70.312500
9533,-70.312500
9534,-70.312500
9535,-74.218750
9536,-74.218750
9537,-74.218750
9538,-74.218750
9539,-78.125000
9540,-78.125000
9541,-78.125000
9542,-78.125000
9543,-82.031250
9544,-82.031250
9545,-82.031250
9546,-82.031250
9547,-85.937500
9548,-85.937500
9549,-85.937500
9550,-85.937500
9551,-89.843750
9552,-89.843750
9553,-89.843750
9554,-89.843750
9555,-93.750000
9556,-93.750000
9557,-93.750000
9558,-93.750000
9559,-97.656250
9560,-97.656250
9561,-97.656250
9562,-97.656250
9563,-101.562500
9564,-101.562500
9565,-101.562500
9566,-101.562500
9567,-105.468750
9568,-105.468750
9569,-105.468750
9570,-105.468750
9571,-105.468750
9572,-109.375000
9573,-109.375000
9574,-109.375000
9575,-109.375000
9576,-113.281250
9577,-113.281250
9578,-113.281250
9579,-113.281250
9580,-113.281250
9581,-117.187500
9582,-117.187500
9583,-117.187500
9584,-117.187500
9585,-121.093750
9586,-121.093750
9587,-121.093750
9588,-121.093750
9589,-121.093750
9590,-125.000000
9591,-125.000000
9592,-125.000000
9593,-125.000000
9594,-125.000000
9595,-128.906250
9596,-128.906250
9597,-128.906250
9598,-128.906250
9599,-132.812500
9600,-132.812500
9601,-132.812500
9602,-132.812500
9603,-132.812500
9604,-132.812500
9605,-136.718750
9606,-136.718750
9607,-136.718750
9608,-136.718750
9609,-140.625000
9610,-136.718750
9611,-140.625000
9612,-140.625000
9613,-140.625000
9614,-140.625000
9615,-144.531250
9616,-144.531250
9617,-144.531250
9618,-144.531250
9619,-144.531250
9620,-144.531250
9621,-144.531250
9622,-148.437500
9623,-148.437500
9624,-148.437500
9625,-152.343750
9626,-148.437500
9627,-152.343750
9628,-152.343750
9629,-152.343750
9630,-152.343750
9631,-152.343750
9632,-152.343750
9633,-156.250000
9634,-156.250000
9635,-156.250000
9636,-156.250000
9637,-156.250000
9638,-156.250000
9639,-156.250000
9640,-160.156250
9641,-160.156250
9642,-160.156250
9643,-160.156250
9644,-160.156250
9645,-160.156250
9646,-160.156250
9647,-160.156250
9648,-164.062500
9649,-164.062500
9650,-164.062500
9651,-164.062500
9652,-164.062500
9653,-164.062500
9654,-164.062500
9655,-164.062500
9656,-167.968750
9657,-167.968750
9658,-167.968750
9659,-167.968750
9660,-167.968750
9661,-167.968750
9662,-167.968750
9663,-167.968750
9664,-171.875000
9665,-171.875000
9666,-171.875000
9667,-171.875000
9668,-171.875000
9669,-171.875000
9670,-171.875000
9671,-171.875000
9672,-171.875000
9673,-171.875000
9674,-175.781250
9675,-175.781250
9676,-175.781250
9677,-175.781250
9678,-175.781250
9679,-175.781250
9680,-175.781250
9681,-175.781250
9682,-175.781250
9683,-175.781250
9684,-175.781250
9685,-175.781250
9686,-175.781250
9687,-175.781250
9688,-175.781250
9689,-175.781250
9690,-179.687500
9691,-179.687500
9692,-179.687500
9693,-179.687500
9694,-179.687500
9695,-179.687500
9696,-179.687500
9697,-179.687500
9698,-179.687500
9699,-179.687500
9700,-179.687500
9701,-179.687500
9702,-179.687500
9703,-179.687500
9704,-179.687500
9705,-179.687500
9706,-179.687500
9707,-179.687500
9708,-179.687500
9709,-179.687500
9710,-179.687500
9711,-179.687500
9712,-179.687500
9713,-179.687500
9714,-179.687500
9715,-179.687500
9716,-179.687500
9717,-179.687500
9718,-179.687500
9719,-179.687500
9720,-179.687500
9721,-179.687500
9722,-179.687500
9723,-179.687500
9724,-179.687500
9725,-179.687500
9726,-179.687500
9727,-179.687500
9728,-179.687500
9729,-179.687500
9730,-179.687500
9731,-179.687500
9732,-179.687500
9733,-179.687500
9734,-179.687500
9735,-179.687500
9736,-179.687500
9737,-179.687500
9738,-179.687500
9739,-179.687500
9740,-179.687500
9741,-179.687500
9742,-179.687500
9743,-179.687500
9744,-179.687500
9745,-179.687500
9746,-175.781250
9747,-175.781250
9748,-175.781250
9749,-175.781250
9750,-175.781250
9751,-175.781250
9752,-175.781250
9753,-175.781250
9754,-175.781250
9755,-175.781250
9756,-175.781250
9757,-175.781250
9758,-175.781250
9759,-175.781250
9760,-175.781250
9761,-171.875000
9762,-171.875000
9763,-171.875000
9764,-171.875000
9765,-171.875000
9766,-171.875000
9767,-171.875000
9768,-171.875000
9769,-171.875000
9770,-171.875000
9771,-171.875000
9772,-171.875000
9773,-171.875000
9774,-171.875000
9775,-167.968750
9776,-167.968750
9777,-167.968750
9778,-167.968750
9779,-167.968750
9780,-167.968750
9781,-167.968750
9782,-167.968750
9783,-167.968750
9784,-164.062500
9785,-164.062500
9786,-164.062500
9787,-164.062500
9788,-164.062500
9789,-164.062500
9790,-164.062500
9791,-164.062500
9792,-160.156250
9793,-160.156250
9794,-160.156250
9795,-160.156250
9796,-160.156250
9797,-160.156250
9798,-156.250000
9799,-156.250000
9800,-156.250000
9801,-156.250000
9802,-156.250000
9803,-156.250000
9804,-156.250000
9805,-156.250000
9806,-152.343750
9807,-152.343750
9808,-152.343750
9809,-152.343750
9810,-152.343750
9811,-148.437500
9812,-148.437500
9813,-148.437500
9814,-148.437500
9815,-148.437500
9816,-148.437500
9817,-148.437500
9818,-144.531250
9819,-144.531250
9820,-144.531250
9821,-144.531250
9822,-144.531250
9823,-144.531250
9824,-140.625000
9825,-140.625000
9826,-140.625000
9827,-140.625000
9828,-140.625000
9829,-136.718750
9830,-136.718750
9831,-136.718750
9832,-136.718750
9833,-136.718750
9834,-132.812500
9835,-132.812500
9836,-132.812500
9837,-132.812500
9838,-132.812500
9839,-128.906250
9840,-128.906250
9841,-128.906250
9842,-128.906250
9843,-128.906250
9844,-125.000000
9845,-125.000000
9846,-125.000000
9847,-125.000000
9848,-125.000000
9849,-121.093750
9850,-121.093750
9851,-121.093750
9852,-121.093750
9853,-117.187500
9854,-117.187500
9855,-117.187500
9856,-117.187500
9857,-117.187500
9858,-113.281250
9859,-113.281250
9860,-113.281250
9861,-113.281250
9862,-109.375000
9863,-109.375000
9864,-109.375000
9865,-109.375000
9866,-109.375000
9867,-105.468750
9868,-105.468750
9869,-105.468750
9870,-105.468750
9871,-105.468750
9872,-101.562500
9873,-101.562500
9874,-101.562500
9875,-101.562500
9876,-97.656250
9877,-97.656250
9878,-97.656250
9879,-97.656250
9880,-93.750000
9881,-93.750000
9882,-93.750000
9883,-93.750000
9884,-89.843750
9885,-89.843750
9886,-89.843750
9887,-89.843750
9888,-85.937500
9889,-85.937500
9890,-85.937500
9891,-85.937500
9892,-82.031250
9893,-82.031250
9894,-82.031250
9895,-82.031250
9896,-78.125000
9897,-78.125000
9898,-78.125000
9899,-78.125000
9900,-74.218750
9901,-74.218750
9902,-74.218750
9903,-74.218750
9904,-70.312500
9905,-70.312500
9906,-70.312500
9907,-70.312500
9908,-66.406250
9909,-66.406250
9910,-66.406250
9911,-66.406250
9912,-62.500000
9913,-62.500000
9914,-62.500000
9915,-62.500000
9916,-58.593750
9917,-58.593750
9918,-58.593750
9919,-58.593750
9920,-54.687500
9921,-54.687500
9922,-54.687500
9923,-54.687500
9924,-54.687500
9925,-50.781250
9926,-50.781250
9927,-46.875000
9928,-46.875000
9929,-46.875000
9930,-46.875000
9931,-42.968750
9932,-42.968750
9933,-42.968750
9934,-42.968750
9935,-39.062500
9936,-39.062500
9937,-39.062500
9938,-39.062500
9939,-35.156250
9940,-35.156250
9941,-35.156250
9942,-35.156250
9943,-31.250000
9944,-31.250000
9945,-31.250000
9946,-31.250000
9947,-27.343750
9948,-27.343750
9949,-27.343750
9950,-27.343750
9951,-23.437500
9952,-23.437500
9953,-23.437500
9954,-23.437500
9955,-19.531250
9956,-19.531250
9957,-19.531250
9958,-15.625000
9959,-15.625000
9960,-15.625000
9961,-15.625000
9962,-15.625000
9963,-11.718750
9964,-11.718750
9965,-11.718750
9966,-7.812500
9967,-7.812500
9968,-7.812500
9969,-3.906250
9970,-3.906250
9971,-3.906250
9972,-3.906250
9973,-3.906250
9974,0.000000
9975,0.000000
9976,0.000000
9977,0.000000
9978,3.906250
9979,3.906250
9980,3.906250
9981,7.812500
9982,7.812500
9983,7.812500
9984,7.812500
9985,7.812500
9986,11.718750
9987,11.718750
9988,11.718750
9989,11.718750
9990,15.625000
9991,15.625000
9992,15.625000
9993,15.625000
9994,19.531250
9995,19.531250
9996,19.531250
9997,19.531250
9998,23.437500
9999,23.437500
10000,23.437500
