Channel              :,CH1
Frequency            :,1.010kHz
Period               :,0.990ms
PK-PK                :,304.7mV
Probe attenuation    :,1X
Voltage per ADC value:,0.244141mV
Time interval        :,1.00000us

index,CH1_Voltage(mV)
1,-74.218750
2,-74.218750
3,-74.218750
4,-70.312500
5,-70.312500
6,-70.312500
7,-70.312500
8,-66.406250
9,-66.406250
10,-66.406250
11,-66.406250
12,-66.406250
13,-62.500000
14,-62.500000
15,-62.500000
16,-58.593750
17,-58.593750
18,-58.593750
19,-58.593750
20,-58.593750
21,-54.687500
22,-54.687500
23,-50.781250
24,-50.781250
25,-50.781250
26,-50.781250
27,-50.781250
28,-46.875000
29,-46.875000
30,-46.875000
31,-46.875000
32,-42.968750
33,-42.968750
34,-42.968750
35,-42.968750
36,-39.062500
37,-39.062500
38,-39.062500
39,-35.156250
40,-35.156250
41,-35.156250
42,-35.156250
43,-31.250000
44,-31.250000
45,-31.250000
46,-27.343750
47,-27.343750
48,-27.343750
49,-27.343750
50,-23.437500
51,-23.437500
52,-23.437500
53,-23.437500
54,-23.437500
55,-19.531250
56,-19.531250
57,-19.531250
58,-19.531250
59,-15.625000
60,-15.625000
61,-15.625000
62,-15.625000
63,-15.625000
64,-11.718750
65,-11.718750
66,-7.812500
67,-7.812500
68,-7.812500
69,-7.812500
70,-3.906250
71,-3.906250
72,-3.906250
73,-3.906250
74,0.000000
75,0.000000
76,0.000000
77,0.000000
78,3.906250
79,3.906250
80,3.906250
81,3.906250
82,3.906250
83,7.812500
84,7.812500
85,7.812500
86,11.718750
87,11.718750
88,11.718750
89,11.718750
90,11.718750
91,15.625000
92,15.625000
93,15.625000
94,15.625000
95,19.531250
96,19.531250
97,19.531250
98,19.531250
99,23.437500
100,23.437500
101,23.437500
102,23.437500
103,23.437500
104,27.343750
105,27.343750
106,27.343750
107,31.250000
108,31.250000
109,31.250000
110,31.250000
111,31.250000
112,35.156250
113,35.156250
114,35.156250
115,35.156250
116,35.156250
117,39.062500
118,39.062500
119,39.062500
120,39.062500
121,42.968750
122,42.968750
123,42.968750
124,42.968750
125,42.968750
126,46.875000
127,46.875000
128,46.875000
129,50.781250
130,46.875000
131,50.781250
132,50.781250
133,50.781250
134,50.781250
135,54.687500
136,54.687500
137,54.687500
138,54.687500
139,54.687500
140,58.593750
141,58.593750
142,58.593750
143,58.593750
144,62.500000
145,62.500000
146,62.500000
147,62.500000
148,62.500000
149,66.406250
150,66.406250
151,66.406250
152,66.406250
153,66.406250
154,70.312500
155,70.312500
156,70.312500
157,70.312500
158,70.312500
159,70.312500
160,74.218750
161,74.218750
162,74.218750
163,74.218750
164,74.218750
165,74.218750
166,78.125000
167,78.125000
168,78.125000
169,78.125000
170,78.125000
171,82.031250
172,82.031250
173,82.031250
174,82.031250
175,82.031250
176,82.031250
177,85.937500
178,85.937500
179,85.937500
180,85.937500
181,85.937500
182,85.937500
183,89.843750
184,89.843750
185,89.843750
186,89.843750
187,89.843750
188,89.843750
189,93.750000
190,93.750000
191,93.750000
192,93.750000
193,93.750000
194,93.750000
195,97.656250
196,97.656250
197,97.656250
198,97.656250
199,97.656250
200,97.656250
201,97.656250
202,97.656250
203,97.656250
204,101.562500
205,101.562500
206,101.562500
207,101.562500
208,101.562500
209,101.562500
210,101.562500
211,105.468750
212,105.468750
213,105.468750
214,105.468750
215,105.468750
216,105.468750
217,105.468750
218,105.468750
219,109.375000
220,109.375000
221,109.375000
222,109.375000
223,109.375000
224,109.375000
225,109.375000
226,109.375000
227,113.281250
228,113.281250
229,113.281250
230,113.281250
231,113.281250
232,113.281250
233,113.281250
234,113.281250
235,113.281250
236,113.281250
237,113.281250
238,117.187500
239,117.187500
240,117.187500
241,117.187500
242,117.187500
243,117.187500
244,117.187500
245,117.187500
246,117.187500
247,117.187500
248,117.187500
249,121.093750
250,121.093750
251,121.093750
252,121.093750
253,121.093750
254,121.093750
255,121.093750
256,121.093750
257,121.093750
258,121.093750
259,125.000000
260,125.000000
261,125.000000
262,125.000000
263,125.000000
264,125.000000
265,125.000000
266,125.000000
267,125.000000
268,125.000000
269,125.000000
270,128.906250
271,125.000000
272,125.000000
273,125.000000
274,125.000000
275,125.000000
276,128.906250
277,128.906250
278,128.906250
279,125.000000
280,128.906250
281,128.906250
282,128.906250
283,128.906250
284,128.906250
285,128.906250
286,128.906250
287,128.906250
288,128.906250
289,128.906250
290,128.906250
291,128.906250
292,128.906250
293,128.906250
294,128.906250
295,128.906250
296,128.906250
297,128.906250
298,128.906250
299,128.906250
300,128.906250
301,128.906250
302,128.906250
303,128.906250
304,132.812500
305,128.906250
306,128.906250
307,128.906250
308,132.812500
309,132.812500
310,132.812500
311,128.906250
312,132.812500
313,128.906250
314,132.812500
315,132.812500
316,132.812500
317,132.812500
318,128.906250
319,128.906250
320,128.906250
321,128.906250
322,128.906250
323,128.906250
324,128.906250
325,132.812500
326,132.812500
327,128.906250
328,132.812500
329,128.906250
330,128.906250
331,128.906250
332,128.906250
333,128.906250
334,128.906250
335,128.906250
336,128.906250
337,128.906250
338,128.906250
339,128.906250
340,128.906250
341,128.906250
342,128.906250
343,128.906250
344,128.906250
345,128.906250
346,128.906250
347,128.906250
348,128.906250
349,128.906250
350,128.906250
351,128.906250
352,128.906250
353,125.000000
354,128.906250
355,125.000000
356,125.000000
357,128.906250
358,128.906250
359,128.906250
360,125.000000
361,125.000000
362,125.000000
363,125.000000
364,125.000000
365,125.000000
366,125.000000
367,125.000000
368,125.000000
369,125.000000
370,125.000000
371,125.000000
372,125.000000
373,125.000000
374,121.093750
375,121.093750
376,121.093750
377,121.093750
378,121.093750
379,121.093750
380,121.093750
381,121.093750
382,121.093750
383,121.093750
384,121.093750
385,121.093750
386,121.093750
387,121.093750
388,121.093750
389,121.093750
390,117.187500
391,117.187500
392,117.187500
393,117.187500
394,117.187500
395,117.187500
396,117.187500
397,117.187500
398,113.281250
399,113.281250
400,113.281250
401,113.281250
402,113.281250
403,113.281250
404,113.281250
405,113.281250
406,113.281250
407,113.281250
408,109.375000
409,109.375000
410,109.375000
411,109.375000
412,109.375000
413,109.375000
414,109.375000
415,109.375000
416,109.375000
417,105.468750
418,105.468750
419,105.468750
420,105.468750
421,105.468750
422,105.468750
423,105.468750
424,105.468750
425,105.468750
426,101.562500
427,101.562500
428,101.562500
429,101.562500
430,101.562500
431,101.562500
432,101.562500
433,101.562500
434,97.656250
435,97.656250
436,97.656250
437,97.656250
438,97.656250
439,93.750000
440,93.750000
441,93.750000
442,93.750000
443,93.750000
444,93.750000
445,93.750000
446,93.750000
447,89.843750
448,89.843750
449,89.843750
450,89.843750
451,89.843750
452,85.937500
453,85.937500
454,85.937500
455,85.937500
456,85.937500
457,85.937500
458,85.937500
459,82.031250
460,82.031250
461,82.031250
462,82.031250
463,82.031250
464,82.031250
465,78.125000
466,78.125000
467,78.125000
468,78.125000
469,74.218750
470,74.218750
471,74.218750
472,74.218750
473,74.218750
474,74.218750
475,70.312500
476,70.312500
477,70.312500
478,70.312500
479,66.406250
480,66.406250
481,66.406250
482,66.406250
483,66.406250
484,62.500000
485,62.500000
486,62.500000
487,62.500000
488,62.500000
489,58.593750
490,58.593750
491,58.593750
492,58.593750
493,58.593750
494,58.593750
495,54.687500
496,54.687500
497,54.687500
498,54.687500
499,50.781250
500,50.781250
501,50.781250
502,50.781250
503,50.781250
504,46.875000
505,46.875000
506,46.875000
507,46.875000
508,42.968750
509,42.968750
510,42.968750
511,42.968750
512,42.968750
513,39.062500
514,39.062500
515,39.062500
516,39.062500
517,35.156250
518,35.156250
519,35.156250
520,35.156250
521,31.250000
522,31.250000
523,31.250000
524,31.250000
525,27.343750
526,27.343750
527,27.343750
528,27.343750
529,23.437500
530,23.437500
531,23.437500
532,23.437500
533,23.437500
534,19.531250
535,19.531250
536,19.531250
537,19.531250
538,15.625000
539,15.625000
540,15.625000
541,15.625000
542,15.625000
543,11.718750
544,11.718750
545,11.718750
546,7.812500
547,7.812500
548,7.812500
549,3.906250
550,3.906250
551,3.906250
552,3.906250
553,3.906250
554,0.000000
555,0.000000
556,0.000000
557,-3.906250
558,-3.906250
559,-3.906250
560,-3.906250
561,-3.906250
562,-7.812500
563,-7.812500
564,-7.812500
565,-7.812500
566,-11.718750
567,-11.718750
568,-11.718750
569,-15.625000
570,-15.625000
571,-15.625000
572,-15.625000
573,-19.531250
574,-19.531250
575,-19.531250
576,-19.531250
577,-23.437500
578,-23.437500
579,-23.437500
580,-23.437500
581,-27.343750
582,-27.343750
583,-27.343750
584,-31.250000
585,-31.250000
586,-31.250000
587,-31.250000
588,-31.250000
589,-35.156250
590,-35.156250
591,-35.156250
592,-39.062500
593,-39.062500
594,-39.062500
595,-39.062500
596,-39.062500
597,-42.968750
598,-42.968750
599,-42.968750
600,-46.875000
601,-46.875000
602,-46.875000
603,-50.781250
604,-50.781250
605,-50.781250
606,-50.781250
607,-50.781250
608,-54.687500
609,-54.687500
610,-54.687500
611,-58.593750
612,-58.593750
613,-58.593750
614,-58.593750
615,-62.500000
616,-62.500000
617,-62.500000
618,-62.500000
619,-66.406250
620,-66.406250
621,-66.406250
622,-66.406250
623,-70.312500
624,-70.312500
625,-70.312500
626,-74.218750
627,-74.218750
628,-74.218750
629,-74.218750
630,-74.218750
631,-78.125000
632,-78.125000
633,-78.125000
634,-78.125000
635,-82.031250
636,-82.031250
637,-82.031250
638,-82.031250
639,-85.937500
640,-85.937500
641,-85.937500
642,-85.937500
643,-89.843750
644,-89.843750
645,-89.843750
646,-89.843750
647,-93.750000
648,-93.750000
649,-93.750000
650,-93.750000
651,-93.750000
652,-97.656250
653,-97.656250
654,-97.656250
655,-97.656250
656,-101.562500
657,-101.562500
658,-101.562500
659,-101.562500
660,-105.468750
661,-105.468750
662,-105.468750
663,-105.468750
664,-109.375000
665,-109.375000
666,-109.375000
667,-109.375000
668,-109.375000
669,-113.281250
670,-113.281250
671,-113.281250
672,-113.281250
673,-113.281250
674,-117.187500
675,-117.187500
676,-117.187500
677,-117.187500
678,-121.093750
679,-121.093750
680,-121.093750
681,-121.093750
682,-121.093750
683,-121.093750
684,-125.000000
685,-125.000000
686,-125.000000
687,-125.000000
688,-128.906250
689,-128.906250
690,-128.906250
691,-128.906250
692,-128.906250
693,-132.812500
694,-132.812500
695,-132.812500
696,-132.812500
697,-132.812500
698,-136.718750
699,-136.718750
700,-136.718750
701,-136.718750
702,-136.718750
703,-136.718750
704,-140.625000
705,-140.625000
706,-140.625000
707,-140.625000
708,-140.625000
709,-140.625000
710,-144.531250
711,-144.531250
712,-144.531250
713,-144.531250
714,-144.531250
715,-148.437500
716,-148.437500
717,-148.437500
718,-148.437500
719,-148.437500
720,-148.437500
721,-152.343750
722,-152.343750
723,-152.343750
724,-152.343750
725,-152.343750
726,-152.343750
727,-152.343750
728,-156.250000
729,-156.250000
730,-156.250000
731,-156.250000
732,-156.250000
733,-156.250000
734,-156.250000
735,-160.156250
736,-160.156250
737,-160.156250
738,-160.156250
739,-160.156250
740,-160.156250
741,-160.156250
742,-160.156250
743,-164.062500
744,-164.062500
745,-164.062500
746,-164.062500
747,-164.062500
748,-164.062500
749,-164.062500
750,-164.062500
751,-164.062500
752,-167.968750
753,-167.968750
754,-167.968750
755,-167.968750
756,-167.968750
757,-167.968750
758,-167.968750
759,-167.968750
760,-167.968750
761,-167.968750
762,-171.875000
763,-171.875000
764,-171.875000
765,-171.875000
766,-171.875000
767,-171.875000
768,-171.875000
769,-171.875000
770,-171.875000
771,-171.875000
772,-171.875000
773,-171.875000
774,-171.875000
775,-171.875000
776,-171.875000
777,-171.875000
778,-175.781250
779,-175.781250
780,-175.781250
781,-175.781250
782,-175.781250
783,-175.781250
784,-175.781250
785,-175.781250
786,-175.781250
787,-175.781250
788,-175.781250
789,-175.781250
790,-175.781250
791,-175.781250
792,-175.781250
793,-175.781250
794,-175.781250
795,-175.781250
796,-179.687500
797,-179.687500
798,-179.687500
799,-175.781250
800,-175.781250
801,-175.781250
802,-175.781250
803,-175.781250
804,-175.781250
805,-179.687500
806,-179.687500
807,-175.781250
808,-175.781250
809,-175.781250
810,-175.781250
811,-179.687500
812,-179.687500
813,-179.687500
814,-175.781250
815,-179.687500
816,-175.781250
817,-175.781250
818,-175.781250
819,-175.781250
820,-175.781250
821,-179.687500
822,-175.781250
823,-175.781250
824,-175.781250
825,-175.781250
826,-175.781250
827,-175.781250
828,-175.781250
829,-175.781250
830,-175.781250
831,-175.781250
832,-175.781250
833,-175.781250
834,-175.781250
835,-175.781250
836,-175.781250
837,-175.781250
838,-175.781250
839,-175.781250
840,-175.781250
841,-175.781250
842,-175.781250
843,-171.875000
844,-171.875000
845,-171.875000
846,-171.875000
847,-171.875000
848,-171.875000
849,-171.875000
850,-171.875000
851,-171.875000
852,-171.875000
853,-171.875000
854,-167.968750
855,-171.875000
856,-167.968750
857,-167.968750
858,-167.968750
859,-167.968750
860,-167.968750
861,-167.968750
862,-167.968750
863,-167.968750
864,-167.968750
865,-167.968750
866,-167.968750
867,-164.062500
868,-164.062500
869,-164.062500
870,-164.062500
871,-164.062500
872,-164.062500
873,-164.062500
874,-164.062500
875,-164.062500
876,-164.062500
877,-160.156250
878,-160.156250
879,-160.156250
880,-160.156250
881,-160.156250
882,-160.156250
883,-160.156250
884,-156.250000
885,-156.250000
886,-156.250000
887,-156.250000
888,-156.250000
889,-156.250000
890,-156.250000
891,-152.343750
892,-152.343750
893,-152.343750
894,-152.343750
895,-152.343750
896,-152.343750
897,-148.437500
898,-148.437500
899,-148.437500
900,-148.437500
901,-148.437500
902,-148.437500
903,-148.437500
904,-144.531250
905,-144.531250
906,-144.531250
907,-144.531250
908,-144.531250
909,-144.531250
910,-140.625000
911,-140.625000
912,-140.625000
913,-140.625000
914,-140.625000
915,-140.625000
916,-136.718750
917,-136.718750
918,-136.718750
919,-136.718750
920,-136.718750
921,-136.718750
922,-132.812500
923,-132.812500
924,-132.812500
925,-132.812500
926,-132.812500
927,-128.906250
928,-128.906250
929,-128.906250
930,-128.906250
931,-128.906250
932,-125.000000
933,-125.000000
934,-125.000000
935,-125.000000
936,-125.000000
937,-121.093750
938,-121.093750
939,-121.093750
940,-121.093750
941,-117.187500
942,-117.187500
943,-117.187500
944,-117.187500
945,-117.187500
946,-113.281250
947,-113.281250
948,-113.281250
949,-113.281250
950,-113.281250
951,-109.375000
952,-109.375000
953,-109.375000
954,-109.375000
955,-105.468750
956,-105.468750
957,-105.468750
958,-105.468750
959,-105.468750
960,-105.468750
961,-101.562500
962,-101.562500
963,-101.562500
964,-97.656250
965,-97.656250
966,-97.656250
967,-97.656250
968,-97.656250
969,-93.750000
970,-93.750000
971,-93.750000
972,-89.843750
973,-89.843750
974,-89.843750
975,-89.843750
976,-89.843750
977,-89.843750
978,-85.937500
979,-85.937500
980,-85.937500
981,-82.031250
982,-82.031250
983,-82.031250
984,-82.031250
985,-82.031250
986,-78.125000
987,-78.125000
988,-78.125000
989,-78.125000
990,-74.218750
991,-74.218750
992,-74.218750
993,-70.312500
994,-70.312500
995,-70.312500
996,-70.312500
997,-70.312500
998,-66.406250
999,-66.406250
1000,-66.406250
1001,-66.406250
1002,-62.500000
1003,-62.500000
1004,-62.500000
1005,-62.500000
1006,-58.593750
1007,-58.593750
1008,-58.593750
1009,-58.593750
1010,-54.687500
1011,-54.687500
1012,-54.687500
1013,-54.687500
1014,-50.781250
1015,-50.781250
1016,-50.781250
1017,-46.875000
1018,-46.875000
1019,-46.875000
1020,-46.875000
1021,-42.968750
1022,-42.968750
1023,-42.968750
1024,-42.968750
1025,-42.968750
1026,-39.062500
1027,-39.062500
1028,-39.062500
1029,-35.156250
1030,-35.156250
1031,-35.156250
1032,-31.250000
1033,-31.250000
1034,-31.250000
1035,-31.250000
1036,-31.250000
1037,-27.343750
1038,-27.343750
1039,-27.343750
1040,-23.437500
1041,-23.437500
1042,-23.437500
1043,-23.437500
1044,-23.437500
1045,-19.531250
1046,-19.531250
1047,-19.531250
1048,-15.625000
1049,-15.625000
1050,-15.625000
1051,-15.625000
1052,-11.718750
1053,-11.718750
1054,-11.718750
1055,-11.718750
1056,-11.718750
1057,-7.812500
1058,-7.812500
1059,-7.812500
1060,-3.906250
1061,-3.906250
1062,-3.906250
1063,-3.906250
1064,-3.906250
1065,0.000000
1066,0.000000
1067,0.000000
1068,3.906250
1069,3.906250
1070,3.906250
1071,3.906250
1072,7.812500
1073,7.812500
1074,7.812500
1075,7.812500
1076,7.812500
1077,11.718750
1078,11.718750
1079,11.718750
1080,15.625000
1081,15.625000
1082,15.625000
1083,15.625000
1084,15.625000
1085,19.531250
1086,19.531250
1087,19.531250
1088,19.531250
1089,23.437500
1090,23.437500
1091,23.437500
1092,23.437500
1093,27.343750
1094,27.343750
1095,27.343750
1096,27.343750
1097,31.250000
1098,31.250000
1099,31.250000
1100,31.250000
1101,35.156250
1102,35.156250
1103,35.156250
1104,35.156250
1105,35.156250
1106,39.062500
1107,39.062500
1108,39.062500
1109,39.062500
1110,42.968750
1111,42.968750
1112,42.968750
1113,42.968750
1114,42.968750
1115,46.875000
1116,46.875000
1117,46.875000
1118,46.875000
1119,46.875000
1120,50.781250
1121,50.781250
1122,50.781250
1123,50.781250
1124,54.687500
1125,54.687500
1126,54.687500
1127,54.687500
1128,54.687500
1129,58.593750
1130,58.593750
1131,58.593750
1132,58.593750
1133,58.593750
1134,62.500000
1135,62.500000
1136,62.500000
1137,62.500000
1138,62.500000
1139,66.406250
1140,66.406250
1141,66.406250
1142,66.406250
1143,66.406250
1144,66.406250
1145,70.312500
1146,70.312500
1147,70.312500
1148,70.312500
1149,70.312500
1150,74.218750
1151,74.218750
1152,74.218750
1153,74.218750
1154,74.218750
1155,78.125000
1156,78.125000
1157,78.125000
1158,78.125000
1159,78.125000
1160,78.125000
1161,82.031250
1162,82.031250
1163,82.031250
1164,82.031250
1165,82.031250
1166,85.937500
1167,85.937500
1168,85.937500
1169,85.937500
1170,85.937500
1171,85.937500
1172,85.937500
1173,89.843750
1174,89.843750
1175,89.843750
1176,89.843750
1177,89.843750
1178,89.843750
1179,93.750000
1180,93.750000
1181,93.750000
1182,93.750000
1183,93.750000
1184,93.750000
1185,93.750000
1186,97.656250
1187,97.656250
1188,97.656250
1189,97.656250
1190,97.656250
1191,97.656250
1192,101.562500
1193,97.656250
1194,101.562500
1195,101.562500
1196,101.562500
1197,101.562500
1198,101.562500
1199,105.468750
1200,105.468750
1201,105.468750
1202,105.468750
1203,105.468750
1204,105.468750
1205,105.468750
1206,105.468750
1207,105.468750
1208,109.375000
1209,109.375000
1210,109.375000
1211,109.375000
1212,109.375000
1213,109.375000
1214,109.375000
1215,109.375000
1216,109.375000
1217,113.281250
1218,113.281250
1219,113.281250
1220,113.281250
1221,113.281250
1222,113.281250
1223,113.281250
1224,113.281250
1225,113.281250
1226,117.187500
1227,117.187500
1228,117.187500
1229,117.187500
1230,117.187500
1231,117.187500
1232,117.187500
1233,117.187500
1234,117.187500
1235,117.187500
1236,117.187500
1237,117.187500
1238,121.093750
1239,121.093750
1240,121.093750
1241,121.093750
1242,121.093750
1243,121.093750
1244,121.093750
1245,121.093750
1246,121.093750
1247,121.093750
1248,121.093750
1249,121.093750
1250,121.093750
1251,121.093750
1252,125.000000
1253,125.000000
1254,125.000000
1255,125.000000
1256,125.000000
1257,125.000000
1258,125.000000
1259,125.000000
1260,125.000000
1261,125.000000
1262,125.000000
1263,125.000000
1264,125.000000
1265,125.000000
1266,125.000000
1267,125.000000
1268,125.000000
1269,128.906250
1270,128.906250
1271,128.906250
1272,128.906250
1273,128.906250
1274,128.906250
1275,128.906250
1276,128.906250
1277,128.906250
1278,128.906250
1279,128.906250
1280,128.906250
1281,128.906250
1282,128.906250
1283,128.906250
1284,128.906250
1285,128.906250
1286,128.906250
1287,128.906250
1288,128.906250
1289,128.906250
1290,128.906250
1291,128.906250
1292,132.812500
1293,128.906250
1294,128.906250
1295,128.906250
1296,128.906250
1297,128.906250
1298,128.906250
1299,128.906250
1300,128.906250
1301,128.906250
1302,132.812500
1303,128.906250
1304,132.812500
1305,128.906250
1306,128.906250
1307,128.906250
1308,128.906250
1309,128.906250
1310,132.812500
1311,132.812500
1312,132.812500
1313,128.906250
1314,132.812500
1315,128.906250
1316,132.812500
1317,132.812500
1318,132.812500
1319,132.812500
1320,128.906250
1321,128.906250
1322,128.906250
1323,128.906250
1324,128.906250
1325,128.906250
1326,128.906250
1327,128.906250
1328,128.906250
1329,128.906250
1330,128.906250
1331,128.906250
1332,128.906250
1333,128.906250
1334,128.906250
1335,128.906250
1336,128.906250
1337,128.906250
1338,128.906250
1339,128.906250
1340,128.906250
1341,128.906250
1342,128.906250
1343,128.906250
1344,128.906250
1345,128.906250
1346,128.906250
1347,125.000000
1348,128.906250
1349,125.000000
1350,125.000000
1351,125.000000
1352,125.000000
1353,125.000000
1354,125.000000
1355,125.000000
1356,125.000000
1357,125.000000
1358,125.000000
1359,125.000000
1360,125.000000
1361,125.000000
1362,125.000000
1363,125.000000
1364,121.093750
1365,121.093750
1366,121.093750
1367,121.093750
1368,121.093750
1369,121.093750
1370,121.093750
1371,121.093750
1372,121.093750
1373,121.093750
1374,121.093750
1375,121.093750
1376,121.093750
1377,121.093750
1378,117.187500
1379,117.187500
1380,117.187500
1381,117.187500
1382,117.187500
1383,117.187500
1384,117.187500
1385,117.187500
1386,117.187500
1387,113.281250
1388,113.281250
1389,113.281250
1390,113.281250
1391,113.281250
1392,113.281250
1393,113.281250
1394,113.281250
1395,113.281250
1396,113.281250
1397,109.375000
1398,109.375000
1399,109.375000
1400,109.375000
1401,109.375000
1402,109.375000
1403,109.375000
1404,109.375000
1405,105.468750
1406,105.468750
1407,105.468750
1408,105.468750
1409,105.468750
1410,105.468750
1411,105.468750
1412,105.468750
1413,105.468750
1414,101.562500
1415,101.562500
1416,101.562500
1417,101.562500
1418,101.562500
1419,101.562500
1420,101.562500
1421,101.562500
1422,97.656250
1423,97.656250
1424,97.656250
1425,97.656250
1426,97.656250
1427,97.656250
1428,97.656250
1429,93.750000
1430,93.750000
1431,93.750000
1432,93.750000
1433,93.750000
1434,93.750000
1435,89.843750
1436,89.843750
1437,89.843750
1438,89.843750
1439,89.843750
1440,89.843750
1441,85.937500
1442,85.937500
1443,85.937500
1444,85.937500
1445,85.937500
1446,85.937500
1447,85.937500
1448,82.031250
1449,82.031250
1450,82.031250
1451,82.031250
1452,82.031250
1453,78.125000
1454,78.125000
1455,78.125000
1456,78.125000
1457,78.125000
1458,78.125000
1459,74.218750
1460,74.218750
1461,74.218750
1462,74.218750
1463,70.312500
1464,70.312500
1465,70.312500
1466,70.312500
1467,70.312500
1468,70.312500
1469,66.406250
1470,66.406250
1471,66.406250
1472,66.406250
1473,66.406250
1474,62.500000
1475,62.500000
1476,62.500000
1477,62.500000
1478,62.500000
1479,58.593750
1480,58.593750
1481,58.593750
1482,58.593750
1483,58.593750
1484,54.687500
1485,54.687500
1486,54.687500
1487,54.687500
1488,50.781250
1489,50.781250
1490,50.781250
1491,50.781250
1492,50.781250
1493,46.875000
1494,46.875000
1495,46.875000
1496,46.875000
1497,46.875000
1498,42.968750
1499,42.968750
1500,42.968750
1501,42.968750
1502,39.062500
1503,39.062500
1504,39.062500
1505,39.062500
1506,35.156250
1507,35.156250
1508,35.156250
1509,31.250000
1510,31.250000
1511,31.250000
1512,31.250000
1513,31.250000
1514,31.250000
1515,27.343750
1516,27.343750
1517,27.343750
1518,23.437500
1519,23.437500
1520,23.437500
1521,23.437500
1522,23.437500
1523,19.531250
1524,19.531250
1525,19.531250
1526,19.531250
1527,15.625000
1528,15.625000
1529,15.625000
1530,15.625000
1531,11.718750
1532,11.718750
1533,11.718750
1534,11.718750
1535,7.812500
1536,7.812500
1537,7.812500
1538,7.812500
1539,7.812500
1540,3.906250
1541,3.906250
1542,3.906250
1543,0.000000
1544,0.000000
1545,0.000000
1546,0.000000
1547,-3.906250
1548,-3.906250
1549,-3.906250
1550,-3.906250
1551,-7.812500
1552,-7.812500
1553,-7.812500
1554,-11.718750
1555,-11.718750
1556,-11.718750
1557,-11.718750
1558,-11.718750
1559,-15.625000
1560,-15.625000
1561,-15.625000
1562,-15.625000
1563,-19.531250
1564,-19.531250
1565,-19.531250
1566,-23.437500
1567,-23.437500
1568,-23.437500
1569,-23.437500
1570,-23.437500
1571,-27.343750
1572,-27.343750
1573,-27.343750
1574,-31.250000
1575,-31.250000
1576,-31.250000
1577,-31.250000
1578,-31.250000
1579,-35.156250
1580,-35.156250
1581,-39.062500
1582,-39.062500
1583,-39.062500
1584,-39.062500
1585,-42.968750
1586,-42.968750
1587,-42.968750
1588,-42.968750
1589,-46.875000
1590,-46.875000
1591,-46.875000
1592,-46.875000
1593,-50.781250
1594,-50.781250
1595,-50.781250
1596,-50.781250
1597,-54.687500
1598,-54.687500
1599,-54.687500
1600,-54.687500
1601,-58.593750
1602,-58.593750
1603,-58.593750
1604,-58.593750
1605,-62.500000
1606,-62.500000
1607,-62.500000
1608,-62.500000
1609,-66.406250
1610,-66.406250
1611,-66.406250
1612,-70.312500
1613,-70.312500
1614,-70.312500
1615,-70.312500
1616,-70.312500
1617,-74.218750
1618,-74.218750
1619,-74.218750
1620,-78.125000
1621,-78.125000
1622,-78.125000
1623,-78.125000
1624,-78.125000
1625,-82.031250
1626,-82.031250
1627,-82.031250
1628,-82.031250
1629,-85.937500
1630,-85.937500
1631,-85.937500
1632,-85.937500
1633,-89.843750
1634,-89.843750
1635,-89.843750
1636,-89.843750
1637,-93.750000
1638,-93.750000
1639,-93.750000
1640,-97.656250
1641,-93.750000
1642,-97.656250
1643,-97.656250
1644,-97.656250
1645,-101.562500
1646,-101.562500
1647,-101.562500
1648,-101.562500
1649,-101.562500
1650,-101.562500
1651,-105.468750
1652,-105.468750
1653,-105.468750
1654,-109.375000
1655,-109.375000
1656,-109.375000
1657,-109.375000
1658,-109.375000
1659,-113.281250
1660,-113.281250
1661,-113.281250
1662,-113.281250
1663,-113.281250
1664,-117.187500
1665,-117.187500
1666,-117.187500
1667,-117.187500
1668,-121.093750
1669,-121.093750
1670,-121.093750
1671,-121.093750
1672,-121.093750
1673,-125.000000
1674,-125.000000
1675,-125.000000
1676,-125.000000
1677,-128.906250
1678,-128.906250
1679,-128.906250
1680,-128.906250
1681,-128.906250
1682,-128.906250
1683,-132.812500
1684,-132.812500
1685,-132.812500
1686,-132.812500
1687,-136.718750
1688,-136.718750
1689,-136.718750
1690,-136.718750
1691,-136.718750
1692,-136.718750
1693,-140.625000
1694,-140.625000
1695,-140.625000
1696,-140.625000
1697,-140.625000
1698,-140.625000
1699,-140.625000
1700,-144.531250
1701,-144.531250
1702,-144.531250
1703,-144.531250
1704,-144.531250
1705,-144.531250
1706,-148.437500
1707,-148.437500
1708,-148.437500
1709,-148.437500
1710,-148.437500
1711,-148.437500
1712,-152.343750
1713,-152.343750
1714,-152.343750
1715,-152.343750
1716,-152.343750
1717,-152.343750
1718,-156.250000
1719,-156.250000
1720,-156.250000
1721,-156.250000
1722,-156.250000
1723,-156.250000
1724,-156.250000
1725,-160.156250
1726,-160.156250
1727,-160.156250
1728,-160.156250
1729,-160.156250
1730,-160.156250
1731,-160.156250
1732,-160.156250
1733,-160.156250
1734,-164.062500
1735,-164.062500
1736,-164.062500
1737,-164.062500
1738,-164.062500
1739,-164.062500
1740,-164.062500
1741,-164.062500
1742,-164.062500
1743,-167.968750
1744,-167.968750
1745,-167.968750
1746,-167.968750
1747,-167.968750
1748,-167.968750
1749,-167.968750
1750,-167.968750
1751,-167.968750
1752,-167.968750
1753,-171.875000
1754,-171.875000
1755,-171.875000
1756,-171.875000
1757,-171.875000
1758,-171.875000
1759,-171.875000
1760,-171.875000
1761,-171.875000
1762,-171.875000
1763,-171.875000
1764,-171.875000
1765,-171.875000
1766,-175.781250
1767,-175.781250
1768,-175.781250
1769,-175.781250
1770,-175.781250
1771,-175.781250
1772,-175.781250
1773,-175.781250
1774,-175.781250
1775,-175.781250
1776,-175.781250
1777,-175.781250
1778,-175.781250
1779,-175.781250
1780,-175.781250
1781,-175.781250
1782,-175.781250
1783,-175.781250
1784,-175.781250
1785,-175.781250
1786,-175.781250
1787,-175.781250
1788,-175.781250
1789,-175.781250
1790,-175.781250
1791,-175.781250
1792,-175.781250
1793,-175.781250
1794,-175.781250
1795,-175.781250
1796,-175.781250
1797,-179.687500
1798,-175.781250
1799,-179.687500
1800,-175.781250
1801,-175.781250
1802,-175.781250
1803,-175.781250
1804,-175.781250
1805,-175.781250
1806,-175.781250
1807,-175.781250
1808,-175.781250
1809,-175.781250
1810,-175.781250
1811,-175.781250
1812,-175.781250
1813,-175.781250
1814,-175.781250
1815,-175.781250
1816,-175.781250
1817,-175.781250
1818,-175.781250
1819,-175.781250
1820,-175.781250
1821,-175.781250
1822,-175.781250
1823,-175.781250
1824,-175.781250
1825,-175.781250
1826,-175.781250
1827,-171.875000
1828,-171.875000
1829,-171.875000
1830,-175.781250
1831,-175.781250
1832,-171.875000
1833,-171.875000
1834,-171.875000
1835,-171.875000
1836,-171.875000
1837,-171.875000
1838,-171.875000
1839,-171.875000
1840,-171.875000
1841,-171.875000
1842,-171.875000
1843,-171.875000
1844,-167.968750
1845,-167.968750
1846,-167.968750
1847,-167.968750
1848,-167.968750
1849,-167.968750
1850,-167.968750
1851,-167.968750
1852,-167.968750
1853,-167.968750
1854,-167.968750
1855,-167.968750
1856,-164.062500
1857,-164.062500
1858,-164.062500
1859,-164.062500
1860,-164.062500
1861,-164.062500
1862,-164.062500
1863,-164.062500
1864,-164.062500
1865,-160.156250
1866,-160.156250
1867,-160.156250
1868,-160.156250
1869,-160.156250
1870,-160.156250
1871,-160.156250
1872,-160.156250
1873,-156.250000
1874,-156.250000
1875,-156.250000
1876,-156.250000
1877,-156.250000
1878,-156.250000
1879,-156.250000
1880,-156.250000
1881,-156.250000
1882,-152.343750
1883,-152.343750
1884,-152.343750
1885,-152.343750
1886,-152.343750
1887,-148.437500
1888,-152.343750
1889,-148.437500
1890,-148.437500
1891,-148.437500
1892,-148.437500
1893,-148.437500
1894,-148.437500
1895,-144.531250
1896,-144.531250
1897,-144.531250
1898,-144.531250
1899,-144.531250
1900,-140.625000
1901,-140.625000
1902,-140.625000
1903,-140.625000
1904,-140.625000
1905,-140.625000
1906,-140.625000
1907,-136.718750
1908,-136.718750
1909,-136.718750
1910,-136.718750
1911,-132.812500
1912,-132.812500
1913,-132.812500
1914,-132.812500
1915,-132.812500
1916,-132.812500
1917,-128.906250
1918,-128.906250
1919,-128.906250
1920,-128.906250
1921,-128.906250
1922,-125.000000
1923,-125.000000
1924,-125.000000
1925,-125.000000
1926,-121.093750
1927,-121.093750
1928,-121.093750
1929,-121.093750
1930,-121.093750
1931,-121.093750
1932,-121.093750
1933,-117.187500
1934,-117.187500
1935,-117.187500
1936,-117.187500
1937,-113.281250
1938,-113.281250
1939,-113.281250
1940,-113.281250
1941,-109.375000
1942,-109.375000
1943,-109.375000
1944,-109.375000
1945,-109.375000
1946,-105.468750
1947,-105.468750
1948,-105.468750
1949,-105.468750
1950,-101.562500
1951,-101.562500
1952,-101.562500
1953,-101.562500
1954,-97.656250
1955,-97.656250
1956,-97.656250
1957,-97.656250
1958,-97.656250
1959,-93.750000
1960,-93.750000
1961,-93.750000
1962,-89.843750
1963,-89.843750
1964,-89.843750
1965,-89.843750
1966,-89.843750
1967,-89.843750
1968,-85.937500
1969,-85.937500
1970,-85.937500
1971,-85.937500
1972,-82.031250
1973,-82.031250
1974,-82.031250
1975,-78.125000
1976,-78.125000
1977,-78.125000
1978,-78.125000
1979,-74.218750
1980,-74.218750
1981,-74.218750
1982,-74.218750
1983,-74.218750
1984,-70.312500
1985,-70.312500
1986,-70.312500
1987,-70.312500
1988,-66.406250
1989,-66.406250
1990,-66.406250
1991,-66.406250
1992,-62.500000
1993,-62.500000
1994,-62.500000
1995,-62.500000
1996,-58.593750
1997,-58.593750
1998,-58.593750
1999,-54.687500
2000,-54.687500
2001,-54.687500
2002,-54.687500
2003,-50.781250
2004,-50.781250
2005,-50.781250
2006,-50.781250
2007,-46.875000
2008,-46.875000
2009,-46.875000
2010,-46.875000
2011,-42.968750
2012,-42.968750
2013,-42.968750
2014,-42.968750
2015,-39.062500
2016,-39.062500
2017,-39.062500
2018,-39.062500
2019,-35.156250
2020,-35.156250
2021,-35.156250
2022,-35.156250
2023,-31.250000
2024,-31.250000
2025,-31.250000
2026,-27.343750
2027,-27.343750
2028,-27.343750
2029,-27.343750
2030,-27.343750
2031,-23.437500
2032,-23.437500
2033,-23.437500
2034,-23.437500
2035,-19.531250
2036,-19.531250
2037,-19.531250
2038,-19.531250
2039,-15.625000
2040,-15.625000
2041,-15.625000
2042,-11.718750
2043,-11.718750
2044,-11.718750
2045,-11.718750
2046,-11.718750
2047,-7.812500
2048,-7.812500
2049,-7.812500
2050,-3.906250
2051,-3.906250
2052,-3.906250
2053,-3.906250
2054,0.000000
2055,0.000000
2056,0.000000
2057,0.000000
2058,3.906250
2059,3.906250
2060,3.906250
2061,3.906250
2062,7.812500
2063,7.812500
2064,7.812500
2065,7.812500
2066,11.718750
2067,11.718750
2068,11.718750
2069,11.718750
2070,15.625000
2071,15.625000
2072,15.625000
2073,15.625000
2074,15.625000
2075,19.531250
2076,19.531250
2077,19.531250
2078,23.437500
2079,23.437500
2080,23.437500
2081,23.437500
2082,23.437500
2083,27.343750
2084,27.343750
2085,27.343750
2086,27.343750
2087,31.250000
2088,31.250000
2089,31.250000
2090,31.250000
2091,31.250000
2092,35.156250
2093,35.156250
2094,35.156250
2095,39.062500
2096,39.062500
2097,39.062500
2098,39.062500
2099,39.062500
2100,39.062500
2101,42.968750
2102,42.968750
2103,42.968750
2104,46.875000
2105,46.875000
2106,46.875000
2107,46.875000
2108,46.875000
2109,50.781250
2110,50.781250
2111,50.781250
2112,50.781250
2113,50.781250
2114,54.687500
2115,54.687500
2116,54.687500
2117,54.687500
2118,58.593750
2119,58.593750
2120,58.593750
2121,58.593750
2122,58.593750
2123,58.593750
2124,62.500000
2125,62.500000
2126,62.500000
2127,62.500000
2128,66.406250
2129,66.406250
2130,66.406250
2131,66.406250
2132,66.406250
2133,66.406250
2134,70.312500
2135,70.312500
2136,70.312500
2137,70.312500
2138,74.218750
2139,74.218750
2140,74.218750
2141,74.218750
2142,74.218750
2143,74.218750
2144,78.125000
2145,78.125000
2146,78.125000
2147,78.125000
2148,78.125000
2149,82.031250
2150,78.125000
2151,82.031250
2152,82.031250
2153,82.031250
2154,82.031250
2155,82.031250
2156,82.031250
2157,85.937500
2158,85.937500
2159,85.937500
2160,85.937500
2161,85.937500
2162,85.937500
2163,89.843750
2164,89.843750
2165,89.843750
2166,89.843750
2167,89.843750
2168,93.750000
2169,93.750000
2170,93.750000
2171,93.750000
2172,93.750000
2173,93.750000
2174,93.750000
2175,97.656250
2176,97.656250
2177,97.656250
2178,97.656250
2179,97.656250
2180,97.656250
2181,97.656250
2182,101.562500
2183,97.656250
2184,101.562500
2185,101.562500
2186,101.562500
2187,101.562500
2188,101.562500
2189,105.468750
2190,105.468750
2191,105.468750
2192,105.468750
2193,105.468750
2194,105.468750
2195,105.468750
2196,105.468750
2197,105.468750
2198,109.375000
2199,109.375000
2200,109.375000
2201,109.375000
2202,109.375000
2203,109.375000
2204,109.375000
2205,109.375000
2206,113.281250
2207,113.281250
2208,113.281250
2209,113.281250
2210,113.281250
2211,113.281250
2212,113.281250
2213,113.281250
2214,113.281250
2215,113.281250
2216,117.187500
2217,113.281250
2218,117.187500
2219,117.187500
2220,117.187500
2221,117.187500
2222,117.187500
2223,117.187500
2224,117.187500
2225,117.187500
2226,117.187500
2227,117.187500
2228,121.093750
2229,121.093750
2230,121.093750
2231,121.093750
2232,121.093750
2233,121.093750
2234,121.093750
2235,121.093750
2236,121.093750
2237,121.093750
2238,121.093750
2239,121.093750
2240,125.000000
2241,121.093750
2242,125.000000
2243,125.000000
2244,125.000000
2245,125.000000
2246,125.000000
2247,125.000000
2248,125.000000
2249,125.000000
2250,125.000000
2251,125.000000
2252,125.000000
2253,125.000000
2254,125.000000
2255,125.000000
2256,125.000000
2257,125.000000
2258,128.906250
2259,128.906250
2260,128.906250
2261,128.906250
2262,128.906250
2263,128.906250
2264,128.906250
2265,128.906250
2266,128.906250
2267,128.906250
2268,128.906250
2269,128.906250
2270,128.906250
2271,128.906250
2272,128.906250
2273,128.906250
2274,128.906250
2275,128.906250
2276,128.906250
2277,128.906250
2278,128.906250
2279,128.906250
2280,128.906250
2281,128.906250
2282,128.906250
2283,128.906250
2284,128.906250
2285,128.906250
2286,132.812500
2287,128.906250
2288,128.906250
2289,128.906250
2290,128.906250
2291,132.812500
2292,132.812500
2293,128.906250
2294,128.906250
2295,128.906250
2296,128.906250
2297,128.906250
2298,132.812500
2299,132.812500
2300,128.906250
2301,128.906250
2302,128.906250
2303,132.812500
2304,128.906250
2305,128.906250
2306,128.906250
2307,132.812500
2308,128.906250
2309,128.906250
2310,128.906250
2311,128.906250
2312,132.812500
2313,128.906250
2314,128.906250
2315,128.906250
2316,128.906250
2317,128.906250
2318,128.906250
2319,128.906250
2320,128.906250
2321,128.906250
2322,128.906250
2323,128.906250
2324,128.906250
2325,128.906250
2326,128.906250
2327,128.906250
2328,128.906250
2329,128.906250
2330,128.906250
2331,128.906250
2332,128.906250
2333,128.906250
2334,128.906250
2335,128.906250
2336,128.906250
2337,128.906250
2338,128.906250
2339,125.000000
2340,125.000000
2341,125.000000
2342,125.000000
2343,125.000000
2344,125.000000
2345,125.000000
2346,125.000000
2347,125.000000
2348,125.000000
2349,125.000000
2350,125.000000
2351,125.000000
2352,125.000000
2353,125.000000
2354,121.093750
2355,121.093750
2356,121.093750
2357,121.093750
2358,121.093750
2359,121.093750
2360,121.093750
2361,121.093750
2362,121.093750
2363,121.093750
2364,121.093750
2365,121.093750
2366,121.093750
2367,117.187500
2368,117.187500
2369,117.187500
2370,117.187500
2371,117.187500
2372,117.187500
2373,117.187500
2374,117.187500
2375,117.187500
2376,117.187500
2377,117.187500
2378,117.187500
2379,113.281250
2380,113.281250
2381,113.281250
2382,113.281250
2383,113.281250
2384,113.281250
2385,113.281250
2386,113.281250
2387,109.375000
2388,109.375000
2389,109.375000
2390,109.375000
2391,109.375000
2392,109.375000
2393,109.375000
2394,109.375000
2395,109.375000
2396,105.468750
2397,105.468750
2398,105.468750
2399,105.468750
2400,105.468750
2401,105.468750
2402,105.468750
2403,105.468750
2404,101.562500
2405,101.562500
2406,101.562500
2407,101.562500
2408,101.562500
2409,101.562500
2410,101.562500
2411,101.562500
2412,97.656250
2413,97.656250
2414,97.656250
2415,97.656250
2416,97.656250
2417,97.656250
2418,97.656250
2419,93.750000
2420,93.750000
2421,93.750000
2422,93.750000
2423,93.750000
2424,93.750000
2425,89.843750
2426,89.843750
2427,89.843750
2428,89.843750
2429,89.843750
2430,85.937500
2431,85.937500
2432,85.937500
2433,85.937500
2434,85.937500
2435,85.937500
2436,85.937500
2437,82.031250
2438,82.031250
2439,82.031250
2440,82.031250
2441,82.031250
2442,78.125000
2443,78.125000
2444,78.125000
2445,78.125000
2446,78.125000
2447,78.125000
2448,74.218750
2449,74.218750
2450,74.218750
2451,74.218750
2452,74.218750
2453,70.312500
2454,70.312500
2455,70.312500
2456,70.312500
2457,70.312500
2458,66.406250
2459,66.406250
2460,66.406250
2461,66.406250
2462,66.406250
2463,62.500000
2464,62.500000
2465,62.500000
2466,62.500000
2467,62.500000
2468,62.500000
2469,58.593750
2470,58.593750
2471,58.593750
2472,58.593750
2473,54.687500
2474,54.687500
2475,54.687500
2476,54.687500
2477,54.687500
2478,54.687500
2479,50.781250
2480,50.781250
2481,50.781250
2482,46.875000
2483,46.875000
2484,46.875000
2485,46.875000
2486,46.875000
2487,46.875000
2488,42.968750
2489,42.968750
2490,42.968750
2491,39.062500
2492,39.062500
2493,39.062500
2494,39.062500
2495,39.062500
2496,35.156250
2497,35.156250
2498,35.156250
2499,35.156250
2500,31.250000
2501,31.250000
2502,31.250000
2503,31.250000
2504,31.250000
2505,27.343750
2506,27.343750
2507,27.343750
2508,27.343750
2509,23.437500
2510,23.437500
2511,23.437500
2512,23.437500
2513,19.531250
2514,19.531250
2515,19.531250
2516,15.625000
2517,19.531250
2518,15.625000
2519,15.625000
2520,15.625000
2521,11.718750
2522,11.718750
2523,11.718750
2524,11.718750
2525,11.718750
2526,7.812500
2527,7.812500
2528,7.812500
2529,3.906250
2530,3.906250
2531,3.906250
2532,3.906250
2533,3.906250
2534,0.000000
2535,0.000000
2536,0.000000
2537,-3.906250
2538,-3.906250
2539,-3.906250
2540,-3.906250
2541,-3.906250
2542,-7.812500
2543,-7.812500
2544,-7.812500
2545,-11.718750
2546,-11.718750
2547,-11.718750
2548,-11.718750
2549,-15.625000
2550,-15.625000
2551,-15.625000
2552,-15.625000
2553,-19.531250
2554,-19.531250
2555,-19.531250
2556,-23.437500
2557,-23.437500
2558,-23.437500
2559,-23.437500
2560,-27.343750
2561,-27.343750
2562,-27.343750
2563,-27.343750
2564,-27.343750
2565,-31.250000
2566,-31.250000
2567,-31.250000
2568,-35.156250
2569,-35.156250
2570,-35.156250
2571,-35.156250
2572,-39.062500
2573,-39.062500
2574,-39.062500
2575,-39.062500
2576,-39.062500
2577,-42.968750
2578,-42.968750
2579,-42.968750
2580,-46.875000
2581,-46.875000
2582,-46.875000
2583,-46.875000
2584,-50.781250
2585,-50.781250
2586,-50.781250
2587,-50.781250
2588,-54.687500
2589,-54.687500
2590,-54.687500
2591,-58.593750
2592,-58.593750
2593,-58.593750
2594,-58.593750
2595,-62.500000
2596,-62.500000
2597,-62.500000
2598,-62.500000
2599,-66.406250
2600,-66.406250
2601,-66.406250
2602,-66.406250
2603,-66.406250
2604,-70.312500
2605,-70.312500
2606,-70.312500
2607,-74.218750
2608,-74.218750
2609,-74.218750
2610,-74.218750
2611,-78.125000
2612,-78.125000
2613,-78.125000
2614,-78.125000
2615,-82.031250
2616,-82.031250
2617,-82.031250
2618,-82.031250
2619,-82.031250
2620,-85.937500
2621,-85.937500
2622,-85.937500
2623,-89.843750
2624,-89.843750
2625,-89.843750
2626,-89.843750
2627,-93.750000
2628,-93.750000
2629,-93.750000
2630,-93.750000
2631,-93.750000
2632,-97.656250
2633,-97.656250
2634,-97.656250
2635,-97.656250
2636,-101.562500
2637,-101.562500
2638,-101.562500
2639,-101.562500
2640,-105.468750
2641,-105.468750
2642,-105.468750
2643,-105.468750
2644,-109.375000
2645,-109.375000
2646,-109.375000
2647,-109.375000
2648,-109.375000
2649,-113.281250
2650,-113.281250
2651,-113.281250
2652,-113.281250
2653,-117.187500
2654,-117.187500
2655,-117.187500
2656,-117.187500
2657,-117.187500
2658,-121.093750
2659,-121.093750
2660,-121.093750
2661,-121.093750
2662,-121.093750
2663,-125.000000
2664,-125.000000
2665,-125.000000
2666,-125.000000
2667,-125.000000
2668,-128.906250
2669,-128.906250
2670,-128.906250
2671,-128.906250
2672,-128.906250
2673,-132.812500
2674,-132.812500
2675,-132.812500
2676,-132.812500
2677,-132.812500
2678,-136.718750
2679,-136.718750
2680,-136.718750
2681,-136.718750
2682,-136.718750
2683,-140.625000
2684,-140.625000
2685,-140.625000
2686,-140.625000
2687,-140.625000
2688,-140.625000
2689,-144.531250
2690,-144.531250
2691,-144.531250
2692,-144.531250
2693,-144.531250
2694,-144.531250
2695,-148.437500
2696,-148.437500
2697,-148.437500
2698,-148.437500
2699,-148.437500
2700,-148.437500
2701,-148.437500
2702,-152.343750
2703,-152.343750
2704,-152.343750
2705,-152.343750
2706,-152.343750
2707,-152.343750
2708,-152.343750
2709,-156.250000
2710,-156.250000
2711,-156.250000
2712,-156.250000
2713,-156.250000
2714,-156.250000
2715,-160.156250
2716,-160.156250
2717,-160.156250
2718,-160.156250
2719,-160.156250
2720,-160.156250
2721,-160.156250
2722,-160.156250
2723,-160.156250
2724,-164.062500
2725,-164.062500
2726,-164.062500
2727,-164.062500
2728,-164.062500
2729,-164.062500
2730,-164.062500
2731,-167.968750
2732,-164.062500
2733,-164.062500
2734,-164.062500
2735,-167.968750
2736,-167.968750
2737,-167.968750
2738,-167.968750
2739,-167.968750
2740,-167.968750
2741,-167.968750
2742,-167.968750
2743,-167.968750
2744,-171.875000
2745,-171.875000
2746,-171.875000
2747,-171.875000
2748,-171.875000
2749,-171.875000
2750,-171.875000
2751,-171.875000
2752,-171.875000
2753,-171.875000
2754,-171.875000
2755,-171.875000
2756,-171.875000
2757,-171.875000
2758,-171.875000
2759,-171.875000
2760,-175.781250
2761,-175.781250
2762,-175.781250
2763,-175.781250
2764,-175.781250
2765,-175.781250
2766,-175.781250
2767,-175.781250
2768,-175.781250
2769,-175.781250
2770,-175.781250
2771,-175.781250
2772,-175.781250
2773,-175.781250
2774,-175.781250
2775,-175.781250
2776,-175.781250
2777,-175.781250
2778,-175.781250
2779,-175.781250
2780,-175.781250
2781,-175.781250
2782,-179.687500
2783,-179.687500
2784,-179.687500
2785,-179.687500
2786,-175.781250
2787,-175.781250
2788,-175.781250
2789,-175.781250
2790,-175.781250
2791,-175.781250
2792,-175.781250
2793,-175.781250
2794,-175.781250
2795,-175.781250
2796,-179.687500
2797,-179.687500
2798,-175.781250
2799,-175.781250
2800,-175.781250
2801,-175.781250
2802,-175.781250
2803,-175.781250
2804,-175.781250
2805,-175.781250
2806,-175.781250
2807,-175.781250
2808,-175.781250
2809,-175.781250
2810,-175.781250
2811,-175.781250
2812,-175.781250
2813,-175.781250
2814,-175.781250
2815,-175.781250
2816,-175.781250
2817,-175.781250
2818,-175.781250
2819,-175.781250
2820,-175.781250
2821,-175.781250
2822,-171.875000
2823,-175.781250
2824,-171.875000
2825,-171.875000
2826,-171.875000
2827,-171.875000
2828,-171.875000
2829,-171.875000
2830,-171.875000
2831,-171.875000
2832,-171.875000
2833,-171.875000
2834,-171.875000
2835,-171.875000
2836,-171.875000
2837,-167.968750
2838,-167.968750
2839,-167.968750
2840,-167.968750
2841,-167.968750
2842,-167.968750
2843,-167.968750
2844,-164.062500
2845,-167.968750
2846,-167.968750
2847,-167.968750
2848,-164.062500
2849,-164.062500
2850,-164.062500
2851,-164.062500
2852,-164.062500
2853,-164.062500
2854,-164.062500
2855,-160.156250
2856,-160.156250
2857,-160.156250
2858,-160.156250
2859,-160.156250
2860,-160.156250
2861,-160.156250
2862,-160.156250
2863,-160.156250
2864,-156.250000
2865,-156.250000
2866,-156.250000
2867,-156.250000
2868,-156.250000
2869,-156.250000
2870,-156.250000
2871,-156.250000
2872,-156.250000
2873,-152.343750
2874,-152.343750
2875,-152.343750
2876,-152.343750
2877,-148.437500
2878,-148.437500
2879,-148.437500
2880,-148.437500
2881,-148.437500
2882,-148.437500
2883,-148.437500
2884,-144.531250
2885,-144.531250
2886,-144.531250
2887,-144.531250
2888,-144.531250
2889,-144.531250
2890,-140.625000
2891,-140.625000
2892,-140.625000
2893,-140.625000
2894,-140.625000
2895,-140.625000
2896,-136.718750
2897,-136.718750
2898,-136.718750
2899,-136.718750
2900,-136.718750
2901,-132.812500
2902,-132.812500
2903,-132.812500
2904,-132.812500
2905,-132.812500
2906,-132.812500
2907,-128.906250
2908,-128.906250
2909,-128.906250
2910,-128.906250
2911,-125.000000
2912,-125.000000
2913,-125.000000
2914,-125.000000
2915,-125.000000
2916,-125.000000
2917,-121.093750
2918,-121.093750
2919,-121.093750
2920,-121.093750
2921,-121.093750
2922,-117.187500
2923,-117.187500
2924,-117.187500
2925,-117.187500
2926,-113.281250
2927,-113.281250
2928,-113.281250
2929,-113.281250
2930,-113.281250
2931,-113.281250
2932,-109.375000
2933,-109.375000
2934,-109.375000
2935,-109.375000
2936,-105.468750
2937,-105.468750
2938,-105.468750
2939,-105.468750
2940,-101.562500
2941,-101.562500
2942,-101.562500
2943,-101.562500
2944,-101.562500
2945,-97.656250
2946,-97.656250
2947,-97.656250
2948,-97.656250
2949,-93.750000
2950,-93.750000
2951,-93.750000
2952,-93.750000
2953,-89.843750
2954,-89.843750
2955,-89.843750
2956,-89.843750
2957,-89.843750
2958,-85.937500
2959,-85.937500
2960,-85.937500
2961,-82.031250
2962,-82.031250
2963,-82.031250
2964,-82.031250
2965,-82.031250
2966,-78.125000
2967,-78.125000
2968,-78.125000
2969,-78.125000
2970,-74.218750
2971,-74.218750
2972,-74.218750
2973,-70.312500
2974,-70.312500
2975,-70.312500
2976,-70.312500
2977,-70.312500
2978,-66.406250
2979,-66.406250
2980,-66.406250
2981,-66.406250
2982,-62.500000
2983,-62.500000
2984,-62.500000
2985,-58.593750
2986,-58.593750
2987,-58.593750
2988,-58.593750
2989,-58.593750
2990,-54.687500
2991,-54.687500
2992,-54.687500
2993,-50.781250
2994,-50.781250
2995,-50.781250
2996,-50.781250
2997,-46.875000
2998,-46.875000
2999,-46.875000
3000,-46.875000
3001,-42.968750
3002,-42.968750
3003,-42.968750
3004,-42.968750
3005,-39.062500
3006,-39.062500
3007,-39.062500
3008,-35.156250
3009,-35.156250
3010,-35.156250
3011,-35.156250
3012,-35.156250
3013,-31.250000
3014,-31.250000
3015,-31.250000
3016,-27.343750
3017,-27.343750
3018,-27.343750
3019,-27.343750
3020,-27.343750
3021,-23.437500
3022,-23.437500
3023,-23.437500
3024,-19.531250
3025,-19.531250
3026,-19.531250
3027,-19.531250
3028,-15.625000
3029,-15.625000
3030,-15.625000
3031,-15.625000
3032,-11.718750
3033,-11.718750
3034,-11.718750
3035,-11.718750
3036,-7.812500
3037,-7.812500
3038,-7.812500
3039,-7.812500
3040,-3.906250
3041,-3.906250
3042,-3.906250
3043,-3.906250
3044,-3.906250
3045,0.000000
3046,0.000000
3047,0.000000
3048,0.000000
3049,3.906250
3050,3.906250
3051,3.906250
3052,7.812500
3053,7.812500
3054,7.812500
3055,7.812500
3056,11.718750
3057,11.718750
3058,11.718750
3059,11.718750
3060,15.625000
3061,15.625000
3062,15.625000
3063,15.625000
3064,15.625000
3065,19.531250
3066,19.531250
3067,19.531250
3068,19.531250
3069,23.437500
3070,23.437500
3071,23.437500
3072,23.437500
3073,27.343750
3074,27.343750
3075,27.343750
3076,27.343750
3077,31.250000
3078,31.250000
3079,31.250000
3080,35.156250
3081,35.156250
3082,35.156250
3083,35.156250
3084,35.156250
3085,35.156250
3086,39.062500
3087,39.062500
3088,39.062500
3089,39.062500
3090,42.968750
3091,42.968750
3092,42.968750
3093,42.968750
3094,42.968750
3095,46.875000
3096,46.875000
3097,46.875000
3098,50.781250
3099,50.781250
3100,50.781250
3101,50.781250
3102,50.781250
3103,50.781250
3104,54.687500
3105,54.687500
3106,54.687500
3107,54.687500
3108,58.593750
3109,58.593750
3110,58.593750
3111,62.500000
3112,58.593750
3113,58.593750
3114,62.500000
3115,62.500000
3116,62.500000
3117,62.500000
3118,66.406250
3119,66.406250
3120,66.406250
3121,66.406250
3122,66.406250
3123,70.312500
3124,70.312500
3125,70.312500
3126,70.312500
3127,70.312500
3128,70.312500
3129,74.218750
3130,74.218750
3131,74.218750
3132,74.218750
3133,74.218750
3134,78.125000
3135,78.125000
3136,78.125000
3137,78.125000
3138,78.125000
3139,78.125000
3140,82.031250
3141,82.031250
3142,82.031250
3143,82.031250
3144,82.031250
3145,82.031250
3146,85.937500
3147,85.937500
3148,85.937500
3149,85.937500
3150,85.937500
3151,85.937500
3152,85.937500
3153,89.843750
3154,89.843750
3155,89.843750
3156,89.843750
3157,89.843750
3158,93.750000
3159,93.750000
3160,93.750000
3161,93.750000
3162,93.750000
3163,93.750000
3164,93.750000
3165,97.656250
3166,97.656250
3167,97.656250
3168,97.656250
3169,97.656250
3170,97.656250
3171,97.656250
3172,101.562500
3173,101.562500
3174,101.562500
3175,101.562500
3176,101.562500
3177,101.562500
3178,101.562500
3179,101.562500
3180,105.468750
3181,105.468750
3182,105.468750
3183,105.468750
3184,105.468750
3185,105.468750
3186,105.468750
3187,109.375000
3188,109.375000
3189,109.375000
3190,109.375000
3191,109.375000
3192,109.375000
3193,109.375000
3194,109.375000
3195,109.375000
3196,109.375000
3197,113.281250
3198,113.281250
3199,113.281250
3200,113.281250
3201,113.281250
3202,113.281250
3203,113.281250
3204,113.281250
3205,113.281250
3206,117.187500
3207,117.187500
3208,117.187500
3209,117.187500
3210,117.187500
3211,117.187500
3212,117.187500
3213,117.187500
3214,117.187500
3215,117.187500
3216,117.187500
3217,121.093750
3218,121.093750
3219,121.093750
3220,121.093750
3221,121.093750
3222,121.093750
3223,121.093750
3224,121.093750
3225,121.093750
3226,125.000000
3227,121.093750
3228,121.093750
3229,121.093750
3230,125.000000
3231,125.000000
3232,125.000000
3233,125.000000
3234,125.000000
3235,125.000000
3236,125.000000
3237,125.000000
3238,125.000000
3239,125.000000
3240,125.000000
3241,125.000000
3242,125.000000
3243,125.000000
3244,128.906250
3245,128.906250
3246,128.906250
3247,128.906250
3248,128.906250
3249,128.906250
3250,128.906250
3251,128.906250
3252,128.906250
3253,128.906250
3254,128.906250
3255,128.906250
3256,128.906250
3257,128.906250
3258,128.906250
3259,128.906250
3260,128.906250
3261,128.906250
3262,128.906250
3263,128.906250
3264,128.906250
3265,128.906250
3266,132.812500
3267,128.906250
3268,128.906250
3269,128.906250
3270,128.906250
3271,128.906250
3272,132.812500
3273,128.906250
3274,128.906250
3275,132.812500
3276,132.812500
3277,132.812500
3278,128.906250
3279,128.906250
3280,128.906250
3281,132.812500
3282,132.812500
3283,132.812500
3284,132.812500
3285,128.906250
3286,128.906250
3287,128.906250
3288,132.812500
3289,132.812500
3290,132.812500
3291,128.906250
3292,128.906250
3293,128.906250
3294,128.906250
3295,128.906250
3296,128.906250
3297,128.906250
3298,128.906250
3299,128.906250
3300,132.812500
3301,128.906250
3302,128.906250
3303,128.906250
3304,128.906250
3305,128.906250
3306,128.906250
3307,128.906250
3308,128.906250
3309,128.906250
3310,128.906250
3311,128.906250
3312,128.906250
3313,128.906250
3314,128.906250
3315,128.906250
3316,128.906250
3317,128.906250
3318,128.906250
3319,128.906250
3320,128.906250
3321,128.906250
3322,128.906250
3323,128.906250
3324,128.906250
3325,125.000000
3326,125.000000
3327,125.000000
3328,125.000000
3329,125.000000
3330,125.000000
3331,125.000000
3332,125.000000
3333,125.000000
3334,125.000000
3335,125.000000
3336,125.000000
3337,125.000000
3338,125.000000
3339,125.000000
3340,125.000000
3341,125.000000
3342,125.000000
3343,125.000000
3344,125.000000
3345,121.093750
3346,121.093750
3347,121.093750
3348,121.093750
3349,121.093750
3350,121.093750
3351,121.093750
3352,121.093750
3353,121.093750
3354,121.093750
3355,121.093750
3356,117.187500
3357,117.187500
3358,121.093750
3359,117.187500
3360,117.187500
3361,117.187500
3362,117.187500
3363,117.187500
3364,117.187500
3365,117.187500
3366,117.187500
3367,117.187500
3368,113.281250
3369,113.281250
3370,113.281250
3371,113.281250
3372,113.281250
3373,113.281250
3374,113.281250
3375,113.281250
3376,113.281250
3377,113.281250
3378,109.375000
3379,109.375000
3380,109.375000
3381,109.375000
3382,109.375000
3383,105.468750
3384,109.375000
3385,105.468750
3386,109.375000
3387,109.375000
3388,105.468750
3389,105.468750
3390,105.468750
3391,105.468750
3392,105.468750
3393,105.468750
3394,105.468750
3395,101.562500
3396,101.562500
3397,101.562500
3398,101.562500
3399,101.562500
3400,101.562500
3401,101.562500
3402,101.562500
3403,97.656250
3404,97.656250
3405,97.656250
3406,97.656250
3407,97.656250
3408,93.750000
3409,93.750000
3410,93.750000
3411,93.750000
3412,93.750000
3413,93.750000
3414,93.750000
3415,89.843750
3416,89.843750
3417,89.843750
3418,89.843750
3419,89.843750
3420,89.843750
3421,89.843750
3422,85.937500
3423,85.937500
3424,85.937500
3425,85.937500
3426,82.031250
3427,82.031250
3428,82.031250
3429,82.031250
3430,82.031250
3431,82.031250
3432,82.031250
3433,78.125000
3434,78.125000
3435,78.125000
3436,78.125000
3437,78.125000
3438,74.218750
3439,74.218750
3440,74.218750
3441,74.218750
3442,74.218750
3443,74.218750
3444,70.312500
3445,70.312500
3446,70.312500
3447,70.312500
3448,66.406250
3449,66.406250
3450,66.406250
3451,66.406250
3452,66.406250
3453,62.500000
3454,62.500000
3455,62.500000
3456,62.500000
3457,62.500000
3458,58.593750
3459,58.593750
3460,58.593750
3461,54.687500
3462,58.593750
3463,54.687500
3464,54.687500
3465,54.687500
3466,54.687500
3467,50.781250
3468,50.781250
3469,50.781250
3470,50.781250
3471,50.781250
3472,50.781250
3473,46.875000
3474,46.875000
3475,46.875000
3476,46.875000
3477,42.968750
3478,42.968750
3479,42.968750
3480,42.968750
3481,42.968750
3482,39.062500
3483,39.062500
3484,39.062500
3485,39.062500
3486,35.156250
3487,35.156250
3488,35.156250
3489,35.156250
3490,35.156250
3491,31.250000
3492,31.250000
3493,31.250000
3494,31.250000
3495,27.343750
3496,27.343750
3497,27.343750
3498,27.343750
3499,23.437500
3500,23.437500
3501,23.437500
3502,19.531250
3503,19.531250
3504,19.531250
3505,19.531250
3506,19.531250
3507,15.625000
3508,15.625000
3509,15.625000
3510,15.625000
3511,15.625000
3512,11.718750
3513,11.718750
3514,11.718750
3515,11.718750
3516,7.812500
3517,7.812500
3518,7.812500
3519,3.906250
3520,3.906250
3521,3.906250
3522,3.906250
3523,0.000000
3524,0.000000
3525,0.000000
3526,0.000000
3527,-3.906250
3528,-3.906250
3529,-3.906250
3530,-3.906250
3531,-7.812500
3532,-7.812500
3533,-7.812500
3534,-7.812500
3535,-11.718750
3536,-11.718750
3537,-11.718750
3538,-11.718750
3539,-15.625000
3540,-15.625000
3541,-15.625000
3542,-15.625000
3543,-19.531250
3544,-19.531250
3545,-19.531250
3546,-19.531250
3547,-23.437500
3548,-23.437500
3549,-23.437500
3550,-27.343750
3551,-27.343750
3552,-27.343750
3553,-27.343750
3554,-31.250000
3555,-31.250000
3556,-31.250000
3557,-35.156250
3558,-35.156250
3559,-35.156250
3560,-35.156250
3561,-35.156250
3562,-39.062500
3563,-39.062500
3564,-39.062500
3565,-42.968750
3566,-42.968750
3567,-42.968750
3568,-42.968750
3569,-46.875000
3570,-46.875000
3571,-46.875000
3572,-46.875000
3573,-50.781250
3574,-50.781250
3575,-50.781250
3576,-50.781250
3577,-54.687500
3578,-54.687500
3579,-54.687500
3580,-54.687500
3581,-58.593750
3582,-58.593750
3583,-58.593750
3584,-58.593750
3585,-62.500000
3586,-62.500000
3587,-62.500000
3588,-66.406250
3589,-66.406250
3590,-66.406250
3591,-70.312500
3592,-70.312500
3593,-70.312500
3594,-70.312500
3595,-70.312500
3596,-70.312500
3597,-74.218750
3598,-74.218750
3599,-74.218750
3600,-78.125000
3601,-78.125000
3602,-78.125000
3603,-78.125000
3604,-82.031250
3605,-82.031250
3606,-82.031250
3607,-82.031250
3608,-85.937500
3609,-85.937500
3610,-85.937500
3611,-85.937500
3612,-85.937500
3613,-89.843750
3614,-89.843750
3615,-89.843750
3616,-93.750000
3617,-93.750000
3618,-93.750000
3619,-93.750000
3620,-93.750000
3621,-97.656250
3622,-97.656250
3623,-97.656250
3624,-97.656250
3625,-101.562500
3626,-101.562500
3627,-101.562500
3628,-101.562500
3629,-101.562500
3630,-105.468750
3631,-105.468750
3632,-105.468750
3633,-109.375000
3634,-109.375000
3635,-109.375000
3636,-109.375000
3637,-109.375000
3638,-109.375000
3639,-113.281250
3640,-113.281250
3641,-113.281250
3642,-113.281250
3643,-117.187500
3644,-117.187500
3645,-117.187500
3646,-117.187500
3647,-121.093750
3648,-121.093750
3649,-121.093750
3650,-121.093750
3651,-121.093750
3652,-121.093750
3653,-125.000000
3654,-125.000000
3655,-125.000000
3656,-125.000000
3657,-128.906250
3658,-128.906250
3659,-128.906250
3660,-128.906250
3661,-128.906250
3662,-132.812500
3663,-132.812500
3664,-132.812500
3665,-132.812500
3666,-132.812500
3667,-136.718750
3668,-136.718750
3669,-136.718750
3670,-136.718750
3671,-136.718750
3672,-136.718750
3673,-140.625000
3674,-140.625000
3675,-140.625000
3676,-140.625000
3677,-140.625000
3678,-140.625000
3679,-144.531250
3680,-144.531250
3681,-144.531250
3682,-144.531250
3683,-144.531250
3684,-144.531250
3685,-148.437500
3686,-148.437500
3687,-148.437500
3688,-148.437500
3689,-148.437500
3690,-148.437500
3691,-148.437500
3692,-152.343750
3693,-152.343750
3694,-152.343750
3695,-152.343750
3696,-152.343750
3697,-152.343750
3698,-156.250000
3699,-156.250000
3700,-156.250000
3701,-156.250000
3702,-156.250000
3703,-156.250000
3704,-156.250000
3705,-156.250000
3706,-160.156250
3707,-160.156250
3708,-160.156250
3709,-160.156250
3710,-160.156250
3711,-160.156250
3712,-160.156250
3713,-164.062500
3714,-164.062500
3715,-164.062500
3716,-164.062500
3717,-164.062500
3718,-164.062500
3719,-167.968750
3720,-167.968750
3721,-164.062500
3722,-164.062500
3723,-167.968750
3724,-167.968750
3725,-167.968750
3726,-167.968750
3727,-167.968750
3728,-167.968750
3729,-167.968750
3730,-167.968750
3731,-171.875000
3732,-171.875000
3733,-171.875000
3734,-171.875000
3735,-171.875000
3736,-171.875000
3737,-171.875000
3738,-171.875000
3739,-171.875000
3740,-171.875000
3741,-171.875000
3742,-171.875000
3743,-175.781250
3744,-171.875000
3745,-171.875000
3746,-171.875000
3747,-171.875000
3748,-175.781250
3749,-175.781250
3750,-175.781250
3751,-175.781250
3752,-175.781250
3753,-175.781250
3754,-175.781250
3755,-175.781250
3756,-175.781250
3757,-175.781250
3758,-175.781250
3759,-175.781250
3760,-175.781250
3761,-175.781250
3762,-175.781250
3763,-175.781250
3764,-175.781250
3765,-175.781250
3766,-175.781250
3767,-175.781250
3768,-175.781250
3769,-175.781250
3770,-175.781250
3771,-175.781250
3772,-175.781250
3773,-175.781250
3774,-175.781250
3775,-175.781250
3776,-179.687500
3777,-175.781250
3778,-179.687500
3779,-175.781250
3780,-175.781250
3781,-179.687500
3782,-175.781250
3783,-175.781250
3784,-179.687500
3785,-179.687500
3786,-179.687500
3787,-175.781250
3788,-175.781250
3789,-175.781250
3790,-175.781250
3791,-179.687500
3792,-175.781250
3793,-179.687500
3794,-175.781250
3795,-175.781250
3796,-175.781250
3797,-175.781250
3798,-175.781250
3799,-175.781250
3800,-175.781250
3801,-175.781250
3802,-175.781250
3803,-175.781250
3804,-175.781250
3805,-175.781250
3806,-175.781250
3807,-175.781250
3808,-171.875000
3809,-175.781250
3810,-175.781250
3811,-171.875000
3812,-171.875000
3813,-171.875000
3814,-171.875000
3815,-171.875000
3816,-171.875000
3817,-171.875000
3818,-171.875000
3819,-171.875000
3820,-171.875000
3821,-171.875000
3822,-171.875000
3823,-171.875000
3824,-171.875000
3825,-171.875000
3826,-171.875000
3827,-167.968750
3828,-167.968750
3829,-167.968750
3830,-167.968750
3831,-167.968750
3832,-171.875000
3833,-167.968750
3834,-167.968750
3835,-167.968750
3836,-164.062500
3837,-164.062500
3838,-164.062500
3839,-164.062500
3840,-164.062500
3841,-160.156250
3842,-164.062500
3843,-164.062500
3844,-164.062500
3845,-164.062500
3846,-160.156250
3847,-164.062500
3848,-160.156250
3849,-160.156250
3850,-160.156250
3851,-160.156250
3852,-160.156250
3853,-160.156250
3854,-160.156250
3855,-156.250000
3856,-156.250000
3857,-156.250000
3858,-156.250000
3859,-156.250000
3860,-156.250000
3861,-156.250000
3862,-152.343750
3863,-152.343750
3864,-152.343750
3865,-152.343750
3866,-152.343750
3867,-152.343750
3868,-148.437500
3869,-148.437500
3870,-148.437500
3871,-148.437500
3872,-148.437500
3873,-148.437500
3874,-144.531250
3875,-144.531250
3876,-144.531250
3877,-144.531250
3878,-144.531250
3879,-144.531250
3880,-140.625000
3881,-140.625000
3882,-140.625000
3883,-140.625000
3884,-140.625000
3885,-140.625000
3886,-136.718750
3887,-136.718750
3888,-136.718750
3889,-136.718750
3890,-136.718750
3891,-136.718750
3892,-132.812500
3893,-132.812500
3894,-132.812500
3895,-132.812500
3896,-128.906250
3897,-128.906250
3898,-128.906250
3899,-128.906250
3900,-128.906250
3901,-125.000000
3902,-125.000000
3903,-125.000000
3904,-125.000000
3905,-125.000000
3906,-125.000000
3907,-121.093750
3908,-121.093750
3909,-121.093750
3910,-121.093750
3911,-121.093750
3912,-117.187500
3913,-117.187500
3914,-117.187500
3915,-117.187500
3916,-113.281250
3917,-113.281250
3918,-113.281250
3919,-113.281250
3920,-113.281250
3921,-109.375000
3922,-109.375000
3923,-109.375000
3924,-109.375000
3925,-105.468750
3926,-105.468750
3927,-105.468750
3928,-105.468750
3929,-105.468750
3930,-101.562500
3931,-101.562500
3932,-101.562500
3933,-101.562500
3934,-97.656250
3935,-97.656250
3936,-97.656250
3937,-97.656250
3938,-93.750000
3939,-93.750000
3940,-93.750000
3941,-93.750000
3942,-89.843750
3943,-89.843750
3944,-89.843750
3945,-89.843750
3946,-85.937500
3947,-85.937500
3948,-85.937500
3949,-85.937500
3950,-82.031250
3951,-82.031250
3952,-82.031250
3953,-82.031250
3954,-82.031250
3955,-82.031250
3956,-78.125000
3957,-78.125000
3958,-78.125000
3959,-74.218750
3960,-74.218750
3961,-74.218750
3962,-70.312500
3963,-74.218750
3964,-70.312500
3965,-70.312500
3966,-70.312500
3967,-66.406250
3968,-66.406250
3969,-66.406250
3970,-66.406250
3971,-66.406250
3972,-62.500000
3973,-62.500000
3974,-62.500000
3975,-58.593750
3976,-58.593750
3977,-58.593750
3978,-58.593750
3979,-54.687500
3980,-54.687500
3981,-54.687500
3982,-50.781250
3983,-50.781250
3984,-50.781250
3985,-50.781250
3986,-50.781250
3987,-46.875000
3988,-46.875000
3989,-46.875000
3990,-42.968750
3991,-42.968750
3992,-42.968750
3993,-42.968750
3994,-42.968750
3995,-39.062500
3996,-39.062500
3997,-39.062500
3998,-35.156250
3999,-35.156250
4000,-35.156250
4001,-35.156250
4002,-31.250000
4003,-31.250000
4004,-31.250000
4005,-31.250000
4006,-27.343750
4007,-27.343750
4008,-27.343750
4009,-27.343750
4010,-23.437500
4011,-23.437500
4012,-23.437500
4013,-23.437500
4014,-19.531250
4015,-19.531250
4016,-19.531250
4017,-19.531250
4018,-15.625000
4019,-15.625000
4020,-11.718750
4021,-15.625000
4022,-11.718750
4023,-11.718750
4024,-11.718750
4025,-11.718750
4026,-7.812500
4027,-7.812500
4028,-7.812500
4029,-7.812500
4030,-3.906250
4031,-3.906250
4032,-3.906250
4033,0.000000
4034,0.000000
4035,0.000000
4036,0.000000
4037,0.000000
4038,3.906250
4039,3.906250
4040,3.906250
4041,7.812500
4042,7.812500
4043,7.812500
4044,11.718750
4045,7.812500
4046,11.718750
4047,11.718750
4048,11.718750
4049,11.718750
4050,15.625000
4051,15.625000
4052,15.625000
4053,15.625000
4054,19.531250
4055,19.531250
4056,19.531250
4057,19.531250
4058,23.437500
4059,23.437500
4060,23.437500
4061,23.437500
4062,23.437500
4063,27.343750
4064,27.343750
4065,27.343750
4066,31.250000
4067,31.250000
4068,31.250000
4069,31.250000
4070,35.156250
4071,35.156250
4072,35.156250
4073,35.156250
4074,35.156250
4075,35.156250
4076,39.062500
4077,39.062500
4078,39.062500
4079,39.062500
4080,42.968750
4081,42.968750
4082,42.968750
4083,42.968750
4084,42.968750
4085,46.875000
4086,46.875000
4087,46.875000
4088,46.875000
4089,50.781250
4090,50.781250
4091,50.781250
4092,50.781250
4093,54.687500
4094,54.687500
4095,54.687500
4096,54.687500
4097,54.687500
4098,58.593750
4099,58.593750
4100,58.593750
4101,58.593750
4102,58.593750
4103,62.500000
4104,62.500000
4105,62.500000
4106,62.500000
4107,66.406250
4108,66.406250
4109,66.406250
4110,66.406250
4111,66.406250
4112,66.406250
4113,66.406250
4114,70.312500
4115,70.312500
4116,70.312500
4117,70.312500
4118,74.218750
4119,74.218750
4120,74.218750
4121,74.218750
4122,74.218750
4123,74.218750
4124,74.218750
4125,78.125000
4126,78.125000
4127,78.125000
4128,78.125000
4129,78.125000
4130,78.125000
4131,82.031250
4132,82.031250
4133,82.031250
4134,82.031250
4135,82.031250
4136,89.843750
4137,85.937500
4138,85.937500
4139,85.937500
4140,85.937500
4141,85.937500
4142,93.750000
4143,89.843750
4144,89.843750
4145,89.843750
4146,89.843750
4147,89.843750
4148,97.656250
4149,93.750000
4150,93.750000
4151,93.750000
4152,93.750000
4153,93.750000
4154,93.750000
4155,97.656250
4156,97.656250
4157,97.656250
4158,97.656250
4159,97.656250
4160,97.656250
4161,101.562500
4162,101.562500
4163,101.562500
4164,101.562500
4165,101.562500
4166,101.562500
4167,101.562500
4168,101.562500
4169,105.468750
4170,105.468750
4171,105.468750
4172,105.468750
4173,105.468750
4174,105.468750
4175,105.468750
4176,105.468750
4177,109.375000
4178,109.375000
4179,109.375000
4180,109.375000
4181,109.375000
4182,109.375000
4183,109.375000
4184,109.375000
4185,109.375000
4186,109.375000
4187,113.281250
4188,113.281250
4189,113.281250
4190,113.281250
4191,113.281250
4192,113.281250
4193,113.281250
4194,113.281250
4195,113.281250
4196,113.281250
4197,117.187500
4198,117.187500
4199,117.187500
4200,117.187500
4201,117.187500
4202,117.187500
4203,117.187500
4204,117.187500
4205,117.187500
4206,117.187500
4207,121.093750
4208,121.093750
4209,121.093750
4210,121.093750
4211,121.093750
4212,121.093750
4213,121.093750
4214,121.093750
4215,121.093750
4216,121.093750
4217,121.093750
4218,121.093750
4219,121.093750
4220,125.000000
4221,125.000000
4222,121.093750
4223,125.000000
4224,125.000000
4225,125.000000
4226,125.000000
4227,125.000000
4228,125.000000
4229,125.000000
4230,125.000000
4231,125.000000
4232,125.000000
4233,125.000000
4234,125.000000
4235,125.000000
4236,128.906250
4237,128.906250
4238,128.906250
4239,125.000000
4240,128.906250
4241,128.906250
4242,128.906250
4243,128.906250
4244,128.906250
4245,128.906250
4246,128.906250
4247,128.906250
4248,128.906250
4249,128.906250
4250,128.906250
4251,128.906250
4252,128.906250
4253,128.906250
4254,128.906250
4255,128.906250
4256,128.906250
4257,128.906250
4258,128.906250
4259,128.906250
4260,128.906250
4261,128.906250
4262,132.812500
4263,128.906250
4264,132.812500
4265,128.906250
4266,132.812500
4267,128.906250
4268,132.812500
4269,128.906250
4270,128.906250
4271,128.906250
4272,132.812500
4273,132.812500
4274,132.812500
4275,128.906250
4276,128.906250
4277,128.906250
4278,132.812500
4279,128.906250
4280,132.812500
4281,132.812500
4282,132.812500
4283,128.906250
4284,132.812500
4285,132.812500
4286,132.812500
4287,128.906250
4288,132.812500
4289,128.906250
4290,128.906250
4291,128.906250
4292,128.906250
4293,128.906250
4294,128.906250
4295,128.906250
4296,128.906250
4297,128.906250
4298,128.906250
4299,128.906250
4300,128.906250
4301,128.906250
4302,128.906250
4303,128.906250
4304,128.906250
4305,128.906250
4306,128.906250
4307,128.906250
4308,128.906250
4309,128.906250
4310,128.906250
4311,128.906250
4312,128.906250
4313,128.906250
4314,128.906250
4315,128.906250
4316,128.906250
4317,125.000000
4318,128.906250
4319,125.000000
4320,125.000000
4321,125.000000
4322,125.000000
4323,125.000000
4324,125.000000
4325,125.000000
4326,125.000000
4327,125.000000
4328,125.000000
4329,125.000000
4330,125.000000
4331,125.000000
4332,125.000000
4333,125.000000
4334,121.093750
4335,121.093750
4336,121.093750
4337,121.093750
4338,121.093750
4339,121.093750
4340,121.093750
4341,121.093750
4342,121.093750
4343,121.093750
4344,117.187500
4345,117.187500
4346,117.187500
4347,117.187500
4348,117.187500
4349,117.187500
4350,117.187500
4351,117.187500
4352,117.187500
4353,117.187500
4354,117.187500
4355,117.187500
4356,113.281250
4357,113.281250
4358,113.281250
4359,113.281250
4360,113.281250
4361,113.281250
4362,113.281250
4363,113.281250
4364,113.281250
4365,113.281250
4366,113.281250
4367,113.281250
4368,109.375000
4369,109.375000
4370,109.375000
4371,109.375000
4372,109.375000
4373,109.375000
4374,109.375000
4375,109.375000
4376,105.468750
4377,105.468750
4378,105.468750
4379,105.468750
4380,105.468750
4381,105.468750
4382,105.468750
4383,101.562500
4384,101.562500
4385,101.562500
4386,101.562500
4387,101.562500
4388,101.562500
4389,101.562500
4390,101.562500
4391,97.656250
4392,97.656250
4393,97.656250
4394,97.656250
4395,97.656250
4396,97.656250
4397,97.656250
4398,93.750000
4399,93.750000
4400,93.750000
4401,93.750000
4402,93.750000
4403,93.750000
4404,93.750000
4405,89.843750
4406,89.843750
4407,89.843750
4408,89.843750
4409,89.843750
4410,89.843750
4411,85.937500
4412,85.937500
4413,85.937500
4414,85.937500
4415,85.937500
4416,85.937500
4417,82.031250
4418,82.031250
4419,82.031250
4420,82.031250
4421,82.031250
4422,78.125000
4423,78.125000
4424,78.125000
4425,78.125000
4426,78.125000
4427,78.125000
4428,74.218750
4429,74.218750
4430,74.218750
4431,74.218750
4432,74.218750
4433,74.218750
4434,70.312500
4435,70.312500
4436,70.312500
4437,70.312500
4438,66.406250
4439,66.406250
4440,66.406250
4441,66.406250
4442,66.406250
4443,66.406250
4444,62.500000
4445,62.500000
4446,62.500000
4447,62.500000
4448,62.500000
4449,58.593750
4450,58.593750
4451,58.593750
4452,58.593750
4453,54.687500
4454,54.687500
4455,54.687500
4456,54.687500
4457,54.687500
4458,54.687500
4459,50.781250
4460,50.781250
4461,50.781250
4462,50.781250
4463,46.875000
4464,46.875000
4465,46.875000
4466,46.875000
4467,42.968750
4468,42.968750
4469,42.968750
4470,42.968750
4471,39.062500
4472,39.062500
4473,39.062500
4474,39.062500
4475,35.156250
4476,35.156250
4477,35.156250
4478,35.156250
4479,35.156250
4480,31.250000
4481,31.250000
4482,31.250000
4483,31.250000
4484,27.343750
4485,27.343750
4486,27.343750
4487,27.343750
4488,27.343750
4489,23.437500
4490,23.437500
4491,23.437500
4492,19.531250
4493,19.531250
4494,19.531250
4495,19.531250
4496,19.531250
4497,15.625000
4498,15.625000
4499,15.625000
4500,15.625000
4501,11.718750
4502,11.718750
4503,11.718750
4504,11.718750
4505,7.812500
4506,7.812500
4507,7.812500
4508,3.906250
4509,3.906250
4510,3.906250
4511,3.906250
4512,3.906250
4513,0.000000
4514,0.000000
4515,0.000000
4516,0.000000
4517,-3.906250
4518,-3.906250
4519,-3.906250
4520,-7.812500
4521,-7.812500
4522,-7.812500
4523,-7.812500
4524,-11.718750
4525,-11.718750
4526,-11.718750
4527,-11.718750
4528,-11.718750
4529,-15.625000
4530,-15.625000
4531,-15.625000
4532,-19.531250
4533,-19.531250
4534,-19.531250
4535,-19.531250
4536,-23.437500
4537,-23.437500
4538,-23.437500
4539,-27.343750
4540,-27.343750
4541,-27.343750
4542,-27.343750
4543,-31.250000
4544,-31.250000
4545,-31.250000
4546,-31.250000
4547,-31.250000
4548,-35.156250
4549,-35.156250
4550,-35.156250
4551,-39.062500
4552,-39.062500
4553,-39.062500
4554,-42.968750
4555,-42.968750
4556,-42.968750
4557,-42.968750
4558,-42.968750
4559,-46.875000
4560,-46.875000
4561,-46.875000
4562,-46.875000
4563,-50.781250
4564,-50.781250
4565,-50.781250
4566,-54.687500
4567,-54.687500
4568,-54.687500
4569,-54.687500
4570,-58.593750
4571,-58.593750
4572,-58.593750
4573,-58.593750
4574,-62.500000
4575,-62.500000
4576,-62.500000
4577,-62.500000
4578,-62.500000
4579,-66.406250
4580,-66.406250
4581,-66.406250
4582,-70.312500
4583,-70.312500
4584,-70.312500
4585,-70.312500
4586,-74.218750
4587,-74.218750
4588,-74.218750
4589,-74.218750
4590,-78.125000
4591,-78.125000
4592,-78.125000
4593,-82.031250
4594,-82.031250
4595,-82.031250
4596,-82.031250
4597,-82.031250
4598,-85.937500
4599,-85.937500
4600,-85.937500
4601,-85.937500
4602,-89.843750
4603,-89.843750
4604,-89.843750
4605,-89.843750
4606,-93.750000
4607,-93.750000
4608,-93.750000
4609,-93.750000
4610,-93.750000
4611,-97.656250
4612,-97.656250
4613,-97.656250
4614,-101.562500
4615,-101.562500
4616,-101.562500
4617,-101.562500
4618,-101.562500
4619,-105.468750
4620,-105.468750
4621,-105.468750
4622,-105.468750
4623,-109.375000
4624,-109.375000
4625,-109.375000
4626,-109.375000
4627,-109.375000
4628,-113.281250
4629,-113.281250
4630,-113.281250
4631,-113.281250
4632,-113.281250
4633,-117.187500
4634,-117.187500
4635,-117.187500
4636,-117.187500
4637,-121.093750
4638,-121.093750
4639,-121.093750
4640,-121.093750
4641,-121.093750
4642,-121.093750
4643,-125.000000
4644,-125.000000
4645,-125.000000
4646,-125.000000
4647,-128.906250
4648,-128.906250
4649,-128.906250
4650,-128.906250
4651,-128.906250
4652,-132.812500
4653,-132.812500
4654,-132.812500
4655,-132.812500
4656,-132.812500
4657,-136.718750
4658,-136.718750
4659,-136.718750
4660,-136.718750
4661,-136.718750
4662,-136.718750
4663,-140.625000
4664,-140.625000
4665,-140.625000
4666,-140.625000
4667,-140.625000
4668,-144.531250
4669,-144.531250
4670,-144.531250
4671,-144.531250
4672,-144.531250
4673,-144.531250
4674,-144.531250
4675,-148.437500
4676,-148.437500
4677,-148.437500
4678,-148.437500
4679,-148.437500
4680,-152.343750
4681,-152.343750
4682,-152.343750
4683,-152.343750
4684,-152.343750
4685,-152.343750
4686,-152.343750
4687,-152.343750
4688,-156.250000
4689,-156.250000
4690,-156.250000
4691,-156.250000
4692,-156.250000
4693,-156.250000
4694,-160.156250
4695,-160.156250
4696,-160.156250
4697,-160.156250
4698,-160.156250
4699,-160.156250
4700,-160.156250
4701,-160.156250
4702,-160.156250
4703,-164.062500
4704,-164.062500
4705,-164.062500
4706,-164.062500
4707,-164.062500
4708,-164.062500
4709,-164.062500
4710,-164.062500
4711,-164.062500
4712,-164.062500
4713,-167.968750
4714,-167.968750
4715,-167.968750
4716,-167.968750
4717,-167.968750
4718,-167.968750
4719,-167.968750
4720,-171.875000
4721,-171.875000
4722,-171.875000
4723,-171.875000
4724,-171.875000
4725,-171.875000
4726,-171.875000
4727,-171.875000
4728,-171.875000
4729,-171.875000
4730,-171.875000
4731,-171.875000
4732,-171.875000
4733,-171.875000
4734,-171.875000
4735,-175.781250
4736,-171.875000
4737,-175.781250
4738,-171.875000
4739,-175.781250
4740,-175.781250
4741,-175.781250
4742,-175.781250
4743,-175.781250
4744,-175.781250
4745,-175.781250
4746,-175.781250
4747,-175.781250
4748,-175.781250
4749,-175.781250
4750,-175.781250
4751,-175.781250
4752,-175.781250
4753,-175.781250
4754,-175.781250
4755,-175.781250
4756,-175.781250
4757,-175.781250
4758,-175.781250
4759,-175.781250
4760,-175.781250
4761,-175.781250
4762,-175.781250
4763,-175.781250
4764,-175.781250
4765,-175.781250
4766,-175.781250
4767,-175.781250
4768,-175.781250
4769,-175.781250
4770,-175.781250
4771,-175.781250
4772,-175.781250
4773,-175.781250
4774,-179.687500
4775,-179.687500
4776,-175.781250
4777,-175.781250
4778,-175.781250
4779,-175.781250
4780,-175.781250
4781,-175.781250
4782,-175.781250
4783,-175.781250
4784,-175.781250
4785,-175.781250
4786,-175.781250
4787,-175.781250
4788,-175.781250
4789,-175.781250
4790,-175.781250
4791,-175.781250
4792,-175.781250
4793,-175.781250
4794,-175.781250
4795,-175.781250
4796,-175.781250
4797,-175.781250
4798,-175.781250
4799,-171.875000
4800,-171.875000
4801,-171.875000
4802,-171.875000
4803,-171.875000
4804,-171.875000
4805,-171.875000
4806,-171.875000
4807,-171.875000
4808,-171.875000
4809,-171.875000
4810,-171.875000
4811,-171.875000
4812,-171.875000
4813,-171.875000
4814,-171.875000
4815,-171.875000
4816,-167.968750
4817,-167.968750
4818,-167.968750
4819,-167.968750
4820,-167.968750
4821,-167.968750
4822,-167.968750
4823,-167.968750
4824,-164.062500
4825,-164.062500
4826,-164.062500
4827,-164.062500
4828,-164.062500
4829,-164.062500
4830,-164.062500
4831,-164.062500
4832,-164.062500
4833,-160.156250
4834,-164.062500
4835,-160.156250
4836,-160.156250
4837,-160.156250
4838,-160.156250
4839,-160.156250
4840,-160.156250
4841,-160.156250
4842,-160.156250
4843,-156.250000
4844,-156.250000
4845,-156.250000
4846,-156.250000
4847,-156.250000
4848,-156.250000
4849,-156.250000
4850,-152.343750
4851,-152.343750
4852,-152.343750
4853,-152.343750
4854,-152.343750
4855,-152.343750
4856,-152.343750
4857,-148.437500
4858,-148.437500
4859,-148.437500
4860,-148.437500
4861,-148.437500
4862,-148.437500
4863,-144.531250
4864,-144.531250
4865,-144.531250
4866,-144.531250
4867,-144.531250
4868,-144.531250
4869,-140.625000
4870,-140.625000
4871,-140.625000
4872,-140.625000
4873,-140.625000
4874,-140.625000
4875,-136.718750
4876,-136.718750
4877,-136.718750
4878,-136.718750
4879,-136.718750
4880,-132.812500
4881,-132.812500
4882,-132.812500
4883,-132.812500
4884,-132.812500
4885,-132.812500
4886,-128.906250
4887,-128.906250
4888,-128.906250
4889,-128.906250
4890,-125.000000
4891,-125.000000
4892,-128.906250
4893,-125.000000
4894,-125.000000
4895,-121.093750
4896,-125.000000
4897,-121.093750
4898,-121.093750
4899,-121.093750
4900,-121.093750
4901,-117.187500
4902,-117.187500
4903,-117.187500
4904,-117.187500
4905,-117.187500
4906,-113.281250
4907,-109.375000
4908,-113.281250
4909,-113.281250
4910,-113.281250
4911,-109.375000
4912,-109.375000
4913,-109.375000
4914,-105.468750
4915,-105.468750
4916,-109.375000
4917,-105.468750
4918,-105.468750
4919,-105.468750
4920,-101.562500
4921,-101.562500
4922,-101.562500
4923,-101.562500
4924,-97.656250
4925,-97.656250
4926,-97.656250
4927,-97.656250
4928,-93.750000
4929,-93.750000
4930,-93.750000
4931,-93.750000
4932,-89.843750
4933,-89.843750
4934,-89.843750
4935,-89.843750
4936,-85.937500
4937,-85.937500
4938,-85.937500
4939,-85.937500
4940,-82.031250
4941,-82.031250
4942,-82.031250
4943,-82.031250
4944,-78.125000
4945,-78.125000
4946,-78.125000
4947,-78.125000
4948,-74.218750
4949,-74.218750
4950,-74.218750
4951,-74.218750
4952,-74.218750
4953,-74.218750
4954,-70.312500
4955,-70.312500
4956,-66.406250
4957,-66.406250
4958,-66.406250
4959,-66.406250
4960,-66.406250
4961,-62.500000
4962,-62.500000
4963,-62.500000
4964,-62.500000
4965,-58.593750
4966,-58.593750
4967,-58.593750
4968,-54.687500
4969,-54.687500
4970,-54.687500
4971,-54.687500
4972,-54.687500
4973,-54.687500
4974,-50.781250
4975,-50.781250
4976,-50.781250
4977,-46.875000
4978,-46.875000
4979,-46.875000
4980,-46.875000
4981,-42.968750
4982,-42.968750
4983,-42.968750
4984,-39.062500
4985,-39.062500
4986,-39.062500
4987,-39.062500
4988,-39.062500
4989,-35.156250
4990,-35.156250
4991,-35.156250
4992,-35.156250
4993,-31.250000
4994,-31.250000
4995,-31.250000
4996,-31.250000
4997,-27.343750
4998,-27.343750
4999,-27.343750
5000,-23.437500
5001,-23.437500
5002,-23.437500
5003,-23.437500
5004,-19.531250
5005,-19.531250
5006,-19.531250
5007,-19.531250
5008,-15.625000
5009,-15.625000
5010,-15.625000
5011,-15.625000
5012,-11.718750
5013,-11.718750
5014,-11.718750
5015,-11.718750
5016,-7.812500
5017,-7.812500
5018,-7.812500
5019,-3.906250
5020,-3.906250
5021,-3.906250
5022,-3.906250
5023,-3.906250
5024,0.000000
5025,0.000000
5026,0.000000
5027,0.000000
5028,3.906250
5029,3.906250
5030,3.906250
5031,3.906250
5032,7.812500
5033,7.812500
5034,7.812500
5035,7.812500
5036,11.718750
5037,11.718750
5038,11.718750
5039,11.718750
5040,15.625000
5041,15.625000
5042,15.625000
5043,15.625000
5044,15.625000
5045,19.531250
5046,19.531250
5047,19.531250
5048,23.437500
5049,23.437500
5050,23.437500
5051,23.437500
5052,23.437500
5053,27.343750
5054,27.343750
5055,27.343750
5056,27.343750
5057,31.250000
5058,31.250000
5059,31.250000
5060,31.250000
5061,35.156250
5062,35.156250
5063,35.156250
5064,35.156250
5065,35.156250
5066,39.062500
5067,39.062500
5068,39.062500
5069,39.062500
5070,42.968750
5071,42.968750
5072,42.968750
5073,42.968750
5074,46.875000
5075,46.875000
5076,46.875000
5077,46.875000
5078,46.875000
5079,50.781250
5080,50.781250
5081,50.781250
5082,50.781250
5083,50.781250
5084,54.687500
5085,54.687500
5086,54.687500
5087,54.687500
5088,58.593750
5089,58.593750
5090,58.593750
5091,58.593750
5092,58.593750
5093,58.593750
5094,62.500000
5095,62.500000
5096,62.500000
5097,62.500000
5098,62.500000
5099,66.406250
5100,66.406250
5101,66.406250
5102,66.406250
5103,66.406250
5104,70.312500
5105,70.312500
5106,70.312500
5107,70.312500
5108,70.312500
5109,74.218750
5110,74.218750
5111,74.218750
5112,74.218750
5113,74.218750
5114,74.218750
5115,78.125000
5116,78.125000
5117,78.125000
5118,78.125000
5119,78.125000
5120,78.125000
5121,82.031250
5122,82.031250
5123,82.031250
5124,82.031250
5125,85.937500
5126,85.937500
5127,85.937500
5128,85.937500
5129,85.937500
5130,85.937500
5131,85.937500
5132,89.843750
5133,89.843750
5134,89.843750
5135,89.843750
5136,89.843750
5137,89.843750
5138,93.750000
5139,93.750000
5140,93.750000
5141,93.750000
5142,93.750000
5143,93.750000
5144,93.750000
5145,93.750000
5146,97.656250
5147,97.656250
5148,97.656250
5149,97.656250
5150,97.656250
5151,97.656250
5152,101.562500
5153,101.562500
5154,101.562500
5155,101.562500
5156,101.562500
5157,101.562500
5158,101.562500
5159,101.562500
5160,105.468750
5161,105.468750
5162,105.468750
5163,105.468750
5164,105.468750
5165,105.468750
5166,105.468750
5167,105.468750
5168,109.375000
5169,109.375000
5170,109.375000
5171,109.375000
5172,109.375000
5173,109.375000
5174,109.375000
5175,113.281250
5176,113.281250
5177,109.375000
5178,113.281250
5179,113.281250
5180,113.281250
5181,113.281250
5182,113.281250
5183,113.281250
5184,117.187500
5185,113.281250
5186,117.187500
5187,117.187500
5188,117.187500
5189,117.187500
5190,117.187500
5191,117.187500
5192,117.187500
5193,117.187500
5194,117.187500
5195,117.187500
5196,117.187500
5197,121.093750
5198,121.093750
5199,121.093750
5200,121.093750
5201,121.093750
5202,121.093750
5203,121.093750
5204,121.093750
5205,121.093750
5206,121.093750
5207,121.093750
5208,125.000000
5209,121.093750
5210,125.000000
5211,125.000000
5212,125.000000
5213,125.000000
5214,125.000000
5215,125.000000
5216,125.000000
5217,125.000000
5218,125.000000
5219,125.000000
5220,125.000000
5221,125.000000
5222,125.000000
5223,125.000000
5224,125.000000
5225,125.000000
5226,125.000000
5227,125.000000
5228,125.000000
5229,128.906250
5230,128.906250
5231,128.906250
5232,128.906250
5233,128.906250
5234,128.906250
5235,128.906250
5236,128.906250
5237,128.906250
5238,128.906250
5239,128.906250
5240,128.906250
5241,128.906250
5242,128.906250
5243,128.906250
5244,128.906250
5245,128.906250
5246,128.906250
5247,128.906250
5248,128.906250
5249,128.906250
5250,128.906250
5251,128.906250
5252,128.906250
5253,128.906250
5254,128.906250
5255,128.906250
5256,132.812500
5257,128.906250
5258,128.906250
5259,128.906250
5260,128.906250
5261,128.906250
5262,132.812500
5263,128.906250
5264,132.812500
5265,128.906250
5266,128.906250
5267,132.812500
5268,128.906250
5269,128.906250
5270,128.906250
5271,128.906250
5272,128.906250
5273,128.906250
5274,128.906250
5275,132.812500
5276,132.812500
5277,128.906250
5278,128.906250
5279,128.906250
5280,128.906250
5281,128.906250
5282,128.906250
5283,128.906250
5284,128.906250
5285,128.906250
5286,128.906250
5287,128.906250
5288,128.906250
5289,128.906250
5290,128.906250
5291,128.906250
5292,128.906250
5293,128.906250
5294,128.906250
5295,128.906250
5296,128.906250
5297,128.906250
5298,128.906250
5299,128.906250
5300,128.906250
5301,128.906250
5302,128.906250
5303,125.000000
5304,125.000000
5305,125.000000
5306,128.906250
5307,128.906250
5308,125.000000
5309,125.000000
5310,128.906250
5311,125.000000
5312,125.000000
5313,125.000000
5314,125.000000
5315,121.093750
5316,125.000000
5317,125.000000
5318,125.000000
5319,125.000000
5320,125.000000
5321,121.093750
5322,125.000000
5323,125.000000
5324,121.093750
5325,121.093750
5326,121.093750
5327,121.093750
5328,121.093750
5329,121.093750
5330,121.093750
5331,121.093750
5332,121.093750
5333,121.093750
5334,121.093750
5335,121.093750
5336,121.093750
5337,117.187500
5338,117.187500
5339,117.187500
5340,117.187500
5341,117.187500
5342,117.187500
5343,117.187500
5344,117.187500
5345,117.187500
5346,113.281250
5347,113.281250
5348,113.281250
5349,113.281250
5350,113.281250
5351,113.281250
5352,113.281250
5353,113.281250
5354,113.281250
5355,113.281250
5356,113.281250
5357,109.375000
5358,109.375000
5359,109.375000
5360,109.375000
5361,109.375000
5362,109.375000
5363,109.375000
5364,109.375000
5365,109.375000
5366,105.468750
5367,105.468750
5368,105.468750
5369,105.468750
5370,105.468750
5371,105.468750
5372,105.468750
5373,105.468750
5374,101.562500
5375,101.562500
5376,101.562500
5377,101.562500
5378,101.562500
5379,101.562500
5380,101.562500
5381,101.562500
5382,97.656250
5383,97.656250
5384,97.656250
5385,97.656250
5386,97.656250
5387,93.750000
5388,93.750000
5389,93.750000
5390,93.750000
5391,93.750000
5392,93.750000
5393,89.843750
5394,89.843750
5395,89.843750
5396,89.843750
5397,89.843750
5398,89.843750
5399,89.843750
5400,89.843750
5401,85.937500
5402,85.937500
5403,85.937500
5404,85.937500
5405,85.937500
5406,82.031250
5407,82.031250
5408,82.031250
5409,82.031250
5410,82.031250
5411,82.031250
5412,78.125000
5413,78.125000
5414,78.125000
5415,78.125000
5416,78.125000
5417,78.125000
5418,74.218750
5419,74.218750
5420,74.218750
5421,74.218750
5422,70.312500
5423,70.312500
5424,70.312500
5425,70.312500
5426,70.312500
5427,66.406250
5428,66.406250
5429,66.406250
5430,66.406250
5431,66.406250
5432,66.406250
5433,62.500000
5434,62.500000
5435,62.500000
5436,62.500000
5437,62.500000
5438,58.593750
5439,58.593750
5440,58.593750
5441,58.593750
5442,58.593750
5443,54.687500
5444,54.687500
5445,54.687500
5446,54.687500
5447,54.687500
5448,50.781250
5449,50.781250
5450,50.781250
5451,50.781250
5452,50.781250
5453,46.875000
5454,46.875000
5455,46.875000
5456,46.875000
5457,42.968750
5458,42.968750
5459,42.968750
5460,42.968750
5461,39.062500
5462,39.062500
5463,39.062500
5464,39.062500
5465,39.062500
5466,35.156250
5467,35.156250
5468,35.156250
5469,31.250000
5470,31.250000
5471,31.250000
5472,31.250000
5473,31.250000
5474,27.343750
5475,27.343750
5476,27.343750
5477,27.343750
5478,23.437500
5479,23.437500
5480,23.437500
5481,23.437500
5482,23.437500
5483,19.531250
5484,19.531250
5485,19.531250
5486,15.625000
5487,15.625000
5488,15.625000
5489,15.625000
5490,11.718750
5491,11.718750
5492,11.718750
5493,11.718750
5494,7.812500
5495,7.812500
5496,7.812500
5497,7.812500
5498,3.906250
5499,3.906250
5500,3.906250
5501,3.906250
5502,3.906250
5503,0.000000
5504,0.000000
5505,0.000000
5506,0.000000
5507,-3.906250
5508,-3.906250
5509,-3.906250
5510,-3.906250
5511,-7.812500
5512,-7.812500
5513,-7.812500
5514,-7.812500
5515,-11.718750
5516,-11.718750
5517,-15.625000
5518,-15.625000
5519,-15.625000
5520,-15.625000
5521,-15.625000
5522,-19.531250
5523,-19.531250
5524,-19.531250
5525,-19.531250
5526,-23.437500
5527,-23.437500
5528,-23.437500
5529,-27.343750
5530,-27.343750
5531,-27.343750
5532,-27.343750
5533,-27.343750
5534,-31.250000
5535,-31.250000
5536,-31.250000
5537,-35.156250
5538,-35.156250
5539,-35.156250
5540,-35.156250
5541,-39.062500
5542,-39.062500
5543,-39.062500
5544,-42.968750
5545,-42.968750
5546,-42.968750
5547,-42.968750
5548,-42.968750
5549,-46.875000
5550,-46.875000
5551,-46.875000
5552,-46.875000
5553,-50.781250
5554,-50.781250
5555,-50.781250
5556,-54.687500
5557,-54.687500
5558,-54.687500
5559,-54.687500
5560,-54.687500
5561,-58.593750
5562,-58.593750
5563,-58.593750
5564,-62.500000
5565,-62.500000
5566,-62.500000
5567,-62.500000
5568,-66.406250
5569,-66.406250
5570,-66.406250
5571,-66.406250
5572,-70.312500
5573,-70.312500
5574,-70.312500
5575,-70.312500
5576,-74.218750
5577,-74.218750
5578,-74.218750
5579,-74.218750
5580,-78.125000
5581,-78.125000
5582,-78.125000
5583,-78.125000
5584,-78.125000
5585,-82.031250
5586,-82.031250
5587,-82.031250
5588,-85.937500
5589,-85.937500
5590,-85.937500
5591,-85.937500
5592,-89.843750
5593,-89.843750
5594,-89.843750
5595,-89.843750
5596,-93.750000
5597,-93.750000
5598,-93.750000
5599,-93.750000
5600,-93.750000
5601,-97.656250
5602,-97.656250
5603,-97.656250
5604,-97.656250
5605,-101.562500
5606,-101.562500
5607,-101.562500
5608,-101.562500
5609,-105.468750
5610,-105.468750
5611,-105.468750
5612,-105.468750
5613,-105.468750
5614,-109.375000
5615,-109.375000
5616,-109.375000
5617,-109.375000
5618,-113.281250
5619,-113.281250
5620,-113.281250
5621,-113.281250
5622,-113.281250
5623,-113.281250
5624,-117.187500
5625,-117.187500
5626,-117.187500
5627,-121.093750
5628,-121.093750
5629,-121.093750
5630,-121.093750
5631,-121.093750
5632,-121.093750
5633,-125.000000
5634,-125.000000
5635,-125.000000
5636,-125.000000
5637,-128.906250
5638,-128.906250
5639,-128.906250
5640,-128.906250
5641,-128.906250
5642,-132.812500
5643,-132.812500
5644,-132.812500
5645,-132.812500
5646,-132.812500
5647,-136.718750
5648,-136.718750
5649,-136.718750
5650,-136.718750
5651,-136.718750
5652,-136.718750
5653,-140.625000
5654,-140.625000
5655,-140.625000
5656,-140.625000
5657,-140.625000
5658,-144.531250
5659,-144.531250
5660,-144.531250
5661,-144.531250
5662,-144.531250
5663,-144.531250
5664,-144.531250
5665,-148.437500
5666,-148.437500
5667,-148.437500
5668,-148.437500
5669,-148.437500
5670,-148.437500
5671,-152.343750
5672,-152.343750
5673,-152.343750
5674,-152.343750
5675,-152.343750
5676,-152.343750
5677,-156.250000
5678,-156.250000
5679,-156.250000
5680,-156.250000
5681,-156.250000
5682,-156.250000
5683,-156.250000
5684,-160.156250
5685,-160.156250
5686,-160.156250
5687,-160.156250
5688,-160.156250
5689,-160.156250
5690,-160.156250
5691,-160.156250
5692,-160.156250
5693,-164.062500
5694,-164.062500
5695,-164.062500
5696,-164.062500
5697,-164.062500
5698,-164.062500
5699,-164.062500
5700,-164.062500
5701,-167.968750
5702,-167.968750
5703,-167.968750
5704,-167.968750
5705,-167.968750
5706,-167.968750
5707,-167.968750
5708,-167.968750
5709,-167.968750
5710,-167.968750
5711,-167.968750
5712,-167.968750
5713,-167.968750
5714,-167.968750
5715,-171.875000
5716,-171.875000
5717,-171.875000
5718,-171.875000
5719,-171.875000
5720,-171.875000
5721,-171.875000
5722,-171.875000
5723,-171.875000
5724,-171.875000
5725,-171.875000
5726,-171.875000
5727,-171.875000
5728,-175.781250
5729,-175.781250
5730,-175.781250
5731,-175.781250
5732,-175.781250
5733,-175.781250
5734,-175.781250
5735,-175.781250
5736,-175.781250
5737,-175.781250
5738,-175.781250
5739,-175.781250
5740,-175.781250
5741,-175.781250
5742,-175.781250
5743,-175.781250
5744,-175.781250
5745,-175.781250
5746,-175.781250
5747,-175.781250
5748,-175.781250
5749,-175.781250
5750,-175.781250
5751,-175.781250
5752,-175.781250
5753,-175.781250
5754,-179.687500
5755,-175.781250
5756,-179.687500
5757,-179.687500
5758,-175.781250
5759,-175.781250
5760,-179.687500
5761,-175.781250
5762,-175.781250
5763,-175.781250
5764,-175.781250
5765,-179.687500
5766,-175.781250
5767,-175.781250
5768,-175.781250
5769,-175.781250
5770,-175.781250
5771,-175.781250
5772,-175.781250
5773,-175.781250
5774,-175.781250
5775,-175.781250
5776,-175.781250
5777,-175.781250
5778,-175.781250
5779,-175.781250
5780,-175.781250
5781,-175.781250
5782,-175.781250
5783,-175.781250
5784,-175.781250
5785,-179.687500
5786,-175.781250
5787,-175.781250
5788,-171.875000
5789,-175.781250
5790,-175.781250
5791,-175.781250
5792,-175.781250
5793,-175.781250
5794,-175.781250
5795,-171.875000
5796,-171.875000
5797,-171.875000
5798,-171.875000
5799,-171.875000
5800,-171.875000
5801,-171.875000
5802,-171.875000
5803,-171.875000
5804,-171.875000
5805,-171.875000
5806,-171.875000
5807,-167.968750
5808,-167.968750
5809,-167.968750
5810,-167.968750
5811,-167.968750
5812,-167.968750
5813,-167.968750
5814,-167.968750
5815,-167.968750
5816,-164.062500
5817,-164.062500
5818,-164.062500
5819,-164.062500
5820,-164.062500
5821,-164.062500
5822,-164.062500
5823,-164.062500
5824,-164.062500
5825,-160.156250
5826,-160.156250
5827,-160.156250
5828,-160.156250
5829,-160.156250
5830,-160.156250
5831,-160.156250
5832,-160.156250
5833,-160.156250
5834,-156.250000
5835,-156.250000
5836,-156.250000
5837,-156.250000
5838,-156.250000
5839,-156.250000
5840,-152.343750
5841,-152.343750
5842,-152.343750
5843,-152.343750
5844,-152.343750
5845,-152.343750
5846,-152.343750
5847,-152.343750
5848,-148.437500
5849,-148.437500
5850,-148.437500
5851,-148.437500
5852,-148.437500
5853,-148.437500
5854,-148.437500
5855,-144.531250
5856,-144.531250
5857,-144.531250
5858,-144.531250
5859,-140.625000
5860,-140.625000
5861,-140.625000
5862,-140.625000
5863,-140.625000
5864,-140.625000
5865,-136.718750
5866,-136.718750
5867,-136.718750
5868,-136.718750
5869,-136.718750
5870,-136.718750
5871,-132.812500
5872,-132.812500
5873,-132.812500
5874,-132.812500
5875,-132.812500
5876,-128.906250
5877,-128.906250
5878,-128.906250
5879,-128.906250
5880,-128.906250
5881,-128.906250
5882,-125.000000
5883,-125.000000
5884,-125.000000
5885,-125.000000
5886,-121.093750
5887,-121.093750
5888,-121.093750
5889,-121.093750
5890,-121.093750
5891,-121.093750
5892,-117.187500
5893,-117.187500
5894,-117.187500
5895,-117.187500
5896,-113.281250
5897,-113.281250
5898,-113.281250
5899,-113.281250
5900,-113.281250
5901,-109.375000
5902,-109.375000
5903,-109.375000
5904,-109.375000
5905,-109.375000
5906,-105.468750
5907,-105.468750
5908,-105.468750
5909,-105.468750
5910,-101.562500
5911,-101.562500
5912,-101.562500
5913,-101.562500
5914,-101.562500
5915,-97.656250
5916,-97.656250
5917,-93.750000
5918,-93.750000
5919,-93.750000
5920,-93.750000
5921,-93.750000
5922,-93.750000
5923,-89.843750
5924,-89.843750
5925,-89.843750
5926,-89.843750
5927,-85.937500
5928,-85.937500
5929,-85.937500
5930,-85.937500
5931,-82.031250
5932,-82.031250
5933,-82.031250
5934,-82.031250
5935,-78.125000
5936,-78.125000
5937,-78.125000
5938,-78.125000
5939,-74.218750
5940,-74.218750
5941,-74.218750
5942,-74.218750
5943,-70.312500
5944,-70.312500
5945,-70.312500
5946,-66.406250
5947,-66.406250
5948,-66.406250
5949,-66.406250
5950,-66.406250
5951,-62.500000
5952,-62.500000
5953,-62.500000
5954,-58.593750
5955,-58.593750
5956,-58.593750
5957,-58.593750
5958,-58.593750
5959,-54.687500
5960,-54.687500
5961,-54.687500
5962,-54.687500
5963,-50.781250
5964,-50.781250
5965,-50.781250
5966,-46.875000
5967,-46.875000
5968,-46.875000
5969,-46.875000
5970,-46.875000
5971,-42.968750
5972,-42.968750
5973,-42.968750
5974,-39.062500
5975,-39.062500
5976,-39.062500
5977,-39.062500
5978,-35.156250
5979,-35.156250
5980,-35.156250
5981,-31.250000
5982,-31.250000
5983,-31.250000
5984,-31.250000
5985,-31.250000
5986,-27.343750
5987,-27.343750
5988,-27.343750
5989,-27.343750
5990,-23.437500
5991,-23.437500
5992,-23.437500
5993,-19.531250
5994,-19.531250
5995,-19.531250
5996,-19.531250
5997,-15.625000
5998,-15.625000
5999,-15.625000
6000,-15.625000
6001,-15.625000
6002,-11.718750
6003,-11.718750
6004,-11.718750
6005,-11.718750
6006,-7.812500
6007,-7.812500
6008,-7.812500
6009,-3.906250
6010,-3.906250
6011,-3.906250
6012,-3.906250
6013,0.000000
6014,0.000000
6015,0.000000
6016,0.000000
6017,3.906250
6018,3.906250
6019,3.906250
6020,3.906250
6021,7.812500
6022,7.812500
6023,7.812500
6024,7.812500
6025,11.718750
6026,11.718750
6027,11.718750
6028,11.718750
6029,11.718750
6030,15.625000
6031,15.625000
6032,15.625000
6033,19.531250
6034,19.531250
6035,19.531250
6036,19.531250
6037,19.531250
6038,23.437500
6039,23.437500
6040,23.437500
6041,23.437500
6042,27.343750
6043,27.343750
6044,27.343750
6045,27.343750
6046,31.250000
6047,31.250000
6048,31.250000
6049,31.250000
6050,35.156250
6051,35.156250
6052,35.156250
6053,35.156250
6054,35.156250
6055,35.156250
6056,39.062500
6057,39.062500
6058,39.062500
6059,42.968750
6060,42.968750
6061,42.968750
6062,42.968750
6063,42.968750
6064,42.968750
6065,46.875000
6066,46.875000
6067,46.875000
6068,50.781250
6069,46.875000
6070,50.781250
6071,50.781250
6072,50.781250
6073,54.687500
6074,54.687500
6075,54.687500
6076,54.687500
6077,58.593750
6078,58.593750
6079,58.593750
6080,58.593750
6081,58.593750
6082,58.593750
6083,62.500000
6084,62.500000
6085,62.500000
6086,62.500000
6087,62.500000
6088,66.406250
6089,66.406250
6090,66.406250
6091,66.406250
6092,70.312500
6093,70.312500
6094,70.312500
6095,70.312500
6096,70.312500
6097,70.312500
6098,70.312500
6099,74.218750
6100,74.218750
6101,74.218750
6102,74.218750
6103,78.125000
6104,78.125000
6105,78.125000
6106,78.125000
6107,78.125000
6108,78.125000
6109,82.031250
6110,82.031250
6111,82.031250
6112,82.031250
6113,82.031250
6114,85.937500
6115,85.937500
6116,85.937500
6117,85.937500
6118,85.937500
6119,85.937500
6120,85.937500
6121,89.843750
6122,89.843750
6123,89.843750
6124,89.843750
6125,89.843750
6126,89.843750
6127,89.843750
6128,93.750000
6129,93.750000
6130,93.750000
6131,93.750000
6132,93.750000
6133,93.750000
6134,97.656250
6135,97.656250
6136,97.656250
6137,97.656250
6138,97.656250
6139,97.656250
6140,101.562500
6141,101.562500
6142,101.562500
6143,101.562500
6144,101.562500
6145,101.562500
6146,101.562500
6147,105.468750
6148,105.468750
6149,105.468750
6150,105.468750
6151,105.468750
6152,105.468750
6153,105.468750
6154,105.468750
6155,105.468750
6156,109.375000
6157,109.375000
6158,109.375000
6159,109.375000
6160,109.375000
6161,109.375000
6162,109.375000
6163,109.375000
6164,109.375000
6165,109.375000
6166,113.281250
6167,113.281250
6168,113.281250
6169,113.281250
6170,113.281250
6171,113.281250
6172,113.281250
6173,117.187500
6174,117.187500
6175,117.187500
6176,117.187500
6177,117.187500
6178,117.187500
6179,117.187500
6180,117.187500
6181,117.187500
6182,117.187500
6183,117.187500
6184,117.187500
6185,117.187500
6186,121.093750
6187,117.187500
6188,121.093750
6189,121.093750
6190,121.093750
6191,121.093750
6192,121.093750
6193,121.093750
6194,121.093750
6195,121.093750
6196,121.093750
6197,121.093750
6198,125.000000
6199,121.093750
6200,125.000000
6201,125.000000
6202,125.000000
6203,125.000000
6204,125.000000
6205,125.000000
6206,125.000000
6207,125.000000
6208,125.000000
6209,125.000000
6210,125.000000
6211,125.000000
6212,128.906250
6213,125.000000
6214,128.906250
6215,125.000000
6216,128.906250
6217,125.000000
6218,128.906250
6219,128.906250
6220,128.906250
6221,128.906250
6222,128.906250
6223,128.906250
6224,128.906250
6225,128.906250
6226,128.906250
6227,128.906250
6228,128.906250
6229,128.906250
6230,128.906250
6231,128.906250
6232,128.906250
6233,128.906250
6234,128.906250
6235,128.906250
6236,128.906250
6237,128.906250
6238,132.812500
6239,128.906250
6240,132.812500
6241,132.812500
6242,132.812500
6243,128.906250
6244,128.906250
6245,128.906250
6246,132.812500
6247,128.906250
6248,132.812500
6249,132.812500
6250,132.812500
6251,128.906250
6252,132.812500
6253,128.906250
6254,132.812500
6255,132.812500
6256,132.812500
6257,128.906250
6258,132.812500
6259,128.906250
6260,132.812500
6261,128.906250
6262,132.812500
6263,128.906250
6264,128.906250
6265,128.906250
6266,132.812500
6267,128.906250
6268,128.906250
6269,128.906250
6270,128.906250
6271,128.906250
6272,132.812500
6273,128.906250
6274,128.906250
6275,128.906250
6276,128.906250
6277,128.906250
6278,128.906250
6279,128.906250
6280,128.906250
6281,128.906250
6282,128.906250
6283,128.906250
6284,128.906250
6285,128.906250
6286,128.906250
6287,128.906250
6288,128.906250
6289,128.906250
6290,128.906250
6291,128.906250
6292,128.906250
6293,128.906250
6294,128.906250
6295,125.000000
6296,128.906250
6297,125.000000
6298,125.000000
6299,125.000000
6300,125.000000
6301,125.000000
6302,125.000000
6303,125.000000
6304,125.000000
6305,125.000000
6306,125.000000
6307,125.000000
6308,125.000000
6309,125.000000
6310,125.000000
6311,125.000000
6312,125.000000
6313,121.093750
6314,121.093750
6315,121.093750
6316,121.093750
6317,121.093750
6318,121.093750
6319,121.093750
6320,121.093750
6321,121.093750
6322,121.093750
6323,121.093750
6324,121.093750
6325,121.093750
6326,117.187500
6327,117.187500
6328,117.187500
6329,117.187500
6330,117.187500
6331,117.187500
6332,117.187500
6333,117.187500
6334,117.187500
6335,117.187500
6336,117.187500
6337,117.187500
6338,113.281250
6339,113.281250
6340,113.281250
6341,113.281250
6342,113.281250
6343,113.281250
6344,113.281250
6345,113.281250
6346,113.281250
6347,113.281250
6348,109.375000
6349,109.375000
6350,109.375000
6351,109.375000
6352,109.375000
6353,109.375000
6354,105.468750
6355,105.468750
6356,105.468750
6357,105.468750
6358,105.468750
6359,105.468750
6360,105.468750
6361,105.468750
6362,105.468750
6363,101.562500
6364,105.468750
6365,101.562500
6366,101.562500
6367,101.562500
6368,101.562500
6369,101.562500
6370,101.562500
6371,97.656250
6372,97.656250
6373,97.656250
6374,97.656250
6375,97.656250
6376,97.656250
6377,93.750000
6378,97.656250
6379,93.750000
6380,93.750000
6381,93.750000
6382,93.750000
6383,93.750000
6384,89.843750
6385,89.843750
6386,89.843750
6387,89.843750
6388,89.843750
6389,89.843750
6390,85.937500
6391,85.937500
6392,85.937500
6393,85.937500
6394,85.937500
6395,85.937500
6396,85.937500
6397,82.031250
6398,82.031250
6399,82.031250
6400,82.031250
6401,82.031250
6402,78.125000
6403,78.125000
6404,78.125000
6405,78.125000
6406,78.125000
6407,78.125000
6408,74.218750
6409,74.218750
6410,74.218750
6411,74.218750
6412,70.312500
6413,70.312500
6414,70.312500
6415,70.312500
6416,70.312500
6417,70.312500
6418,66.406250
6419,66.406250
6420,66.406250
6421,66.406250
6422,66.406250
6423,62.500000
6424,62.500000
6425,62.500000
6426,62.500000
6427,62.500000
6428,58.593750
6429,58.593750
6430,58.593750
6431,58.593750
6432,54.687500
6433,54.687500
6434,54.687500
6435,54.687500
6436,50.781250
6437,50.781250
6438,50.781250
6439,50.781250
6440,50.781250
6441,50.781250
6442,50.781250
6443,46.875000
6444,46.875000
6445,46.875000
6446,42.968750
6447,42.968750
6448,42.968750
6449,42.968750
6450,42.968750
6451,39.062500
6452,39.062500
6453,39.062500
6454,39.062500
6455,39.062500
6456,35.156250
6457,35.156250
6458,35.156250
6459,35.156250
6460,31.250000
6461,31.250000
6462,31.250000
6463,31.250000
6464,27.343750
6465,27.343750
6466,27.343750
6467,23.437500
6468,23.437500
6469,23.437500
6470,23.437500
6471,23.437500
6472,19.531250
6473,19.531250
6474,19.531250
6475,19.531250
6476,15.625000
6477,15.625000
6478,15.625000
6479,15.625000
6480,15.625000
6481,11.718750
6482,11.718750
6483,11.718750
6484,11.718750
6485,7.812500
6486,7.812500
6487,7.812500
6488,7.812500
6489,3.906250
6490,3.906250
6491,3.906250
6492,3.906250
6493,0.000000
6494,0.000000
6495,0.000000
6496,-3.906250
6497,-3.906250
6498,-3.906250
6499,-3.906250
6500,-3.906250
6501,-7.812500
6502,-7.812500
6503,-7.812500
6504,-11.718750
6505,-11.718750
6506,-11.718750
6507,-11.718750
6508,-15.625000
6509,-15.625000
6510,-15.625000
6511,-19.531250
6512,-19.531250
6513,-19.531250
6514,-19.531250
6515,-23.437500
6516,-23.437500
6517,-23.437500
6518,-23.437500
6519,-23.437500
6520,-27.343750
6521,-27.343750
6522,-27.343750
6523,-31.250000
6524,-31.250000
6525,-31.250000
6526,-31.250000
6527,-35.156250
6528,-35.156250
6529,-35.156250
6530,-35.156250
6531,-39.062500
6532,-39.062500
6533,-39.062500
6534,-39.062500
6535,-42.968750
6536,-42.968750
6537,-42.968750
6538,-42.968750
6539,-46.875000
6540,-46.875000
6541,-46.875000
6542,-46.875000
6543,-50.781250
6544,-50.781250
6545,-50.781250
6546,-54.687500
6547,-54.687500
6548,-54.687500
6549,-54.687500
6550,-58.593750
6551,-58.593750
6552,-58.593750
6553,-58.593750
6554,-62.500000
6555,-62.500000
6556,-62.500000
6557,-66.406250
6558,-66.406250
6559,-66.406250
6560,-66.406250
6561,-70.312500
6562,-70.312500
6563,-70.312500
6564,-70.312500
6565,-70.312500
6566,-74.218750
6567,-74.218750
6568,-74.218750
6569,-78.125000
6570,-78.125000
6571,-78.125000
6572,-78.125000
6573,-78.125000
6574,-82.031250
6575,-82.031250
6576,-82.031250
6577,-82.031250
6578,-85.937500
6579,-85.937500
6580,-85.937500
6581,-89.843750
6582,-89.843750
6583,-89.843750
6584,-89.843750
6585,-93.750000
6586,-93.750000
6587,-93.750000
6588,-93.750000
6589,-93.750000
6590,-97.656250
6591,-97.656250
6592,-97.656250
6593,-97.656250
6594,-97.656250
6595,-101.562500
6596,-101.562500
6597,-101.562500
6598,-105.468750
6599,-105.468750
6600,-105.468750
6601,-105.468750
6602,-109.375000
6603,-109.375000
6604,-109.375000
6605,-109.375000
6606,-109.375000
6607,-113.281250
6608,-113.281250
6609,-113.281250
6610,-113.281250
6611,-113.281250
6612,-117.187500
6613,-117.187500
6614,-117.187500
6615,-117.187500
6616,-117.187500
6617,-121.093750
6618,-121.093750
6619,-121.093750
6620,-121.093750
6621,-125.000000
6622,-125.000000
6623,-125.000000
6624,-125.000000
6625,-125.000000
6626,-125.000000
6627,-128.906250
6628,-128.906250
6629,-128.906250
6630,-128.906250
6631,-132.812500
6632,-128.906250
6633,-132.812500
6634,-132.812500
6635,-132.812500
6636,-132.812500
6637,-136.718750
6638,-136.718750
6639,-136.718750
6640,-136.718750
6641,-136.718750
6642,-136.718750
6643,-140.625000
6644,-140.625000
6645,-140.625000
6646,-140.625000
6647,-144.531250
6648,-144.531250
6649,-144.531250
6650,-144.531250
6651,-144.531250
6652,-144.531250
6653,-144.531250
6654,-144.531250
6655,-148.437500
6656,-148.437500
6657,-148.437500
6658,-148.437500
6659,-148.437500
6660,-152.343750
6661,-152.343750
6662,-152.343750
6663,-152.343750
6664,-152.343750
6665,-152.343750
6666,-152.343750
6667,-156.250000
6668,-156.250000
6669,-156.250000
6670,-156.250000
6671,-156.250000
6672,-156.250000
6673,-156.250000
6674,-160.156250
6675,-160.156250
6676,-160.156250
6677,-160.156250
6678,-160.156250
6679,-160.156250
6680,-164.062500
6681,-164.062500
6682,-164.062500
6683,-164.062500
6684,-164.062500
6685,-164.062500
6686,-164.062500
6687,-164.062500
6688,-164.062500
6689,-164.062500
6690,-164.062500
6691,-167.968750
6692,-167.968750
6693,-167.968750
6694,-167.968750
6695,-167.968750
6696,-167.968750
6697,-167.968750
6698,-167.968750
6699,-171.875000
6700,-171.875000
6701,-171.875000
6702,-171.875000
6703,-171.875000
6704,-171.875000
6705,-171.875000
6706,-171.875000
6707,-171.875000
6708,-171.875000
6709,-171.875000
6710,-171.875000
6711,-171.875000
6712,-175.781250
6713,-171.875000
6714,-175.781250
6715,-175.781250
6716,-171.875000
6717,-175.781250
6718,-175.781250
6719,-175.781250
6720,-175.781250
6721,-175.781250
6722,-175.781250
6723,-175.781250
6724,-175.781250
6725,-175.781250
6726,-175.781250
6727,-175.781250
6728,-175.781250
6729,-175.781250
6730,-175.781250
6731,-175.781250
6732,-175.781250
6733,-175.781250
6734,-175.781250
6735,-175.781250
6736,-179.687500
6737,-175.781250
6738,-179.687500
6739,-179.687500
6740,-175.781250
6741,-175.781250
6742,-175.781250
6743,-175.781250
6744,-179.687500
6745,-175.781250
6746,-179.687500
6747,-179.687500
6748,-179.687500
6749,-179.687500
6750,-179.687500
6751,-179.687500
6752,-175.781250
6753,-175.781250
6754,-175.781250
6755,-179.687500
6756,-175.781250
6757,-175.781250
6758,-179.687500
6759,-179.687500
6760,-175.781250
6761,-175.781250
6762,-175.781250
6763,-175.781250
6764,-175.781250
6765,-175.781250
6766,-175.781250
6767,-175.781250
6768,-175.781250
6769,-175.781250
6770,-175.781250
6771,-175.781250
6772,-175.781250
6773,-175.781250
6774,-175.781250
6775,-175.781250
6776,-175.781250
6777,-175.781250
6778,-175.781250
6779,-175.781250
6780,-175.781250
6781,-175.781250
6782,-171.875000
6783,-171.875000
6784,-171.875000
6785,-171.875000
6786,-171.875000
6787,-171.875000
6788,-171.875000
6789,-171.875000
6790,-171.875000
6791,-171.875000
6792,-171.875000
6793,-171.875000
6794,-167.968750
6795,-171.875000
6796,-167.968750
6797,-167.968750
6798,-167.968750
6799,-167.968750
6800,-167.968750
6801,-167.968750
6802,-167.968750
6803,-167.968750
6804,-167.968750
6805,-167.968750
6806,-164.062500
6807,-164.062500
6808,-164.062500
6809,-164.062500
6810,-164.062500
6811,-164.062500
6812,-164.062500
6813,-164.062500
6814,-160.156250
6815,-160.156250
6816,-160.156250
6817,-160.156250
6818,-160.156250
6819,-160.156250
6820,-160.156250
6821,-160.156250
6822,-160.156250
6823,-160.156250
6824,-156.250000
6825,-156.250000
6826,-156.250000
6827,-156.250000
6828,-156.250000
6829,-156.250000
6830,-152.343750
6831,-152.343750
6832,-152.343750
6833,-152.343750
6834,-152.343750
6835,-152.343750
6836,-152.343750
6837,-148.437500
6838,-148.437500
6839,-148.437500
6840,-148.437500
6841,-148.437500
6842,-148.437500
6843,-148.437500
6844,-144.531250
6845,-144.531250
6846,-140.625000
6847,-144.531250
6848,-144.531250
6849,-140.625000
6850,-140.625000
6851,-140.625000
6852,-140.625000
6853,-140.625000
6854,-136.718750
6855,-136.718750
6856,-136.718750
6857,-136.718750
6858,-136.718750
6859,-136.718750
6860,-132.812500
6861,-136.718750
6862,-132.812500
6863,-132.812500
6864,-132.812500
6865,-128.906250
6866,-128.906250
6867,-128.906250
6868,-128.906250
6869,-128.906250
6870,-125.000000
6871,-125.000000
6872,-125.000000
6873,-125.000000
6874,-125.000000
6875,-121.093750
6876,-121.093750
6877,-121.093750
6878,-121.093750
6879,-121.093750
6880,-117.187500
6881,-117.187500
6882,-117.187500
6883,-117.187500
6884,-117.187500
6885,-113.281250
6886,-113.281250
6887,-113.281250
6888,-113.281250
6889,-109.375000
6890,-109.375000
6891,-109.375000
6892,-109.375000
6893,-105.468750
6894,-105.468750
6895,-105.468750
6896,-105.468750
6897,-105.468750
6898,-101.562500
6899,-101.562500
6900,-101.562500
6901,-101.562500
6902,-101.562500
6903,-97.656250
6904,-97.656250
6905,-97.656250
6906,-97.656250
6907,-97.656250
6908,-93.750000
6909,-93.750000
6910,-93.750000
6911,-93.750000
6912,-89.843750
6913,-89.843750
6914,-89.843750
6915,-85.937500
6916,-85.937500
6917,-85.937500
6918,-85.937500
6919,-85.937500
6920,-82.031250
6921,-82.031250
6922,-82.031250
6923,-78.125000
6924,-78.125000
6925,-78.125000
6926,-78.125000
6927,-78.125000
6928,-78.125000
6929,-74.218750
6930,-74.218750
6931,-74.218750
6932,-70.312500
6933,-70.312500
6934,-70.312500
6935,-70.312500
6936,-66.406250
6937,-66.406250
6938,-66.406250
6939,-66.406250
6940,-62.500000
6941,-62.500000
6942,-62.500000
6943,-58.593750
6944,-58.593750
6945,-58.593750
6946,-58.593750
6947,-58.593750
6948,-54.687500
6949,-54.687500
6950,-54.687500
6951,-54.687500
6952,-50.781250
6953,-50.781250
6954,-50.781250
6955,-50.781250
6956,-46.875000
6957,-46.875000
6958,-46.875000
6959,-42.968750
6960,-42.968750
6961,-42.968750
6962,-42.968750
6963,-39.062500
6964,-39.062500
6965,-39.062500
6966,-35.156250
6967,-39.062500
6968,-35.156250
6969,-35.156250
6970,-35.156250
6971,-31.250000
6972,-31.250000
6973,-31.250000
6974,-31.250000
6975,-27.343750
6976,-27.343750
6977,-27.343750
6978,-27.343750
6979,-23.437500
6980,-23.437500
6981,-23.437500
6982,-19.531250
6983,-19.531250
6984,-19.531250
6985,-19.531250
6986,-19.531250
6987,-15.625000
6988,-15.625000
6989,-15.625000
6990,-15.625000
6991,-11.718750
6992,-11.718750
6993,-11.718750
6994,-7.812500
6995,-7.812500
6996,-7.812500
6997,-7.812500
6998,-3.906250
6999,-3.906250
7000,-3.906250
7001,-3.906250
7002,0.000000
7003,0.000000
7004,0.000000
7005,0.000000
7006,3.906250
7007,3.906250
7008,3.906250
7009,3.906250
7010,7.812500
7011,7.812500
7012,7.812500
7013,7.812500
7014,11.718750
7015,11.718750
7016,11.718750
7017,11.718750
7018,15.625000
7019,15.625000
7020,15.625000
7021,15.625000
7022,15.625000
7023,19.531250
7024,19.531250
7025,19.531250
7026,19.531250
7027,23.437500
7028,23.437500
7029,23.437500
7030,23.437500
7031,27.343750
7032,27.343750
7033,27.343750
7034,27.343750
7035,31.250000
7036,31.250000
7037,31.250000
7038,35.156250
7039,35.156250
7040,35.156250
7041,35.156250
7042,35.156250
7043,35.156250
7044,35.156250
7045,39.062500
7046,39.062500
7047,39.062500
7048,42.968750
7049,42.968750
7050,42.968750
7051,42.968750
7052,42.968750
7053,46.875000
7054,46.875000
7055,46.875000
7056,46.875000
7057,46.875000
7058,50.781250
7059,50.781250
7060,50.781250
7061,50.781250
7062,54.687500
7063,54.687500
7064,54.687500
7065,54.687500
7066,58.593750
7067,58.593750
7068,58.593750
7069,58.593750
7070,58.593750
7071,62.500000
7072,62.500000
7073,62.500000
7074,62.500000
7075,62.500000
7076,66.406250
7077,66.406250
7078,66.406250
7079,66.406250
7080,66.406250
7081,66.406250
7082,66.406250
7083,70.312500
7084,70.312500
7085,70.312500
7086,70.312500
7087,74.218750
7088,74.218750
7089,74.218750
7090,74.218750
7091,74.218750
7092,78.125000
7093,78.125000
7094,78.125000
7095,78.125000
7096,78.125000
7097,78.125000
7098,82.031250
7099,82.031250
7100,82.031250
7101,82.031250
7102,82.031250
7103,82.031250
7104,85.937500
7105,85.937500
7106,85.937500
7107,85.937500
7108,85.937500
7109,85.937500
7110,89.843750
7111,89.843750
7112,89.843750
7113,89.843750
7114,89.843750
7115,89.843750
7116,93.750000
7117,93.750000
7118,93.750000
7119,93.750000
7120,93.750000
7121,93.750000
7122,93.750000
7123,97.656250
7124,97.656250
7125,97.656250
7126,97.656250
7127,97.656250
7128,97.656250
7129,97.656250
7130,101.562500
7131,101.562500
7132,101.562500
7133,101.562500
7134,101.562500
7135,101.562500
7136,101.562500
7137,105.468750
7138,105.468750
7139,105.468750
7140,105.468750
7141,105.468750
7142,105.468750
7143,105.468750
7144,105.468750
7145,105.468750
7146,109.375000
7147,109.375000
7148,109.375000
7149,109.375000
7150,109.375000
7151,109.375000
7152,109.375000
7153,109.375000
7154,109.375000
7155,113.281250
7156,113.281250
7157,113.281250
7158,113.281250
7159,113.281250
7160,113.281250
7161,113.281250
7162,113.281250
7163,113.281250
7164,113.281250
7165,117.187500
7166,113.281250
7167,117.187500
7168,117.187500
7169,117.187500
7170,117.187500
7171,117.187500
7172,117.187500
7173,117.187500
7174,121.093750
7175,121.093750
7176,121.093750
7177,121.093750
7178,121.093750
7179,121.093750
7180,121.093750
7181,121.093750
7182,121.093750
7183,121.093750
7184,121.093750
7185,121.093750
7186,121.093750
7187,121.093750
7188,125.000000
7189,121.093750
7190,125.000000
7191,125.000000
7192,125.000000
7193,125.000000
7194,125.000000
7195,125.000000
7196,125.000000
7197,125.000000
7198,125.000000
7199,125.000000
7200,125.000000
7201,125.000000
7202,128.906250
7203,125.000000
7204,128.906250
7205,128.906250
7206,128.906250
7207,128.906250
7208,128.906250
7209,125.000000
7210,128.906250
7211,128.906250
7212,128.906250
7213,128.906250
7214,128.906250
7215,128.906250
7216,128.906250
7217,128.906250
7218,128.906250
7219,128.906250
7220,128.906250
7221,128.906250
7222,128.906250
7223,128.906250
7224,128.906250
7225,128.906250
7226,128.906250
7227,128.906250
7228,125.000000
7229,128.906250
7230,128.906250
7231,128.906250
7232,128.906250
7233,132.812500
7234,128.906250
7235,128.906250
7236,136.718750
7237,128.906250
7238,132.812500
7239,128.906250
7240,132.812500
7241,128.906250
7242,128.906250
7243,128.906250
7244,128.906250
7245,128.906250
7246,128.906250
7247,132.812500
7248,132.812500
7249,132.812500
7250,132.812500
7251,132.812500
7252,132.812500
7253,128.906250
7254,128.906250
7255,128.906250
7256,128.906250
7257,128.906250
7258,132.812500
7259,128.906250
7260,132.812500
7261,128.906250
7262,132.812500
7263,128.906250
7264,128.906250
7265,128.906250
7266,128.906250
7267,128.906250
7268,128.906250
7269,128.906250
7270,128.906250
7271,128.906250
7272,128.906250
7273,128.906250
7274,128.906250
7275,128.906250
7276,128.906250
7277,128.906250
7278,128.906250
7279,128.906250
7280,128.906250
7281,128.906250
7282,128.906250
7283,125.000000
7284,128.906250
7285,125.000000
7286,128.906250
7287,125.000000
7288,125.000000
7289,125.000000
7290,128.906250
7291,125.000000
7292,125.000000
7293,125.000000
7294,125.000000
7295,125.000000
7296,125.000000
7297,125.000000
7298,125.000000
7299,125.000000
7300,125.000000
7301,125.000000
7302,121.093750
7303,121.093750
7304,121.093750
7305,121.093750
7306,121.093750
7307,121.093750
7308,121.093750
7309,121.093750
7310,121.093750
7311,121.093750
7312,121.093750
7313,121.093750
7314,117.187500
7315,117.187500
7316,117.187500
7317,117.187500
7318,117.187500
7319,117.187500
7320,117.187500
7321,117.187500
7322,117.187500
7323,117.187500
7324,117.187500
7325,117.187500
7326,117.187500
7327,113.281250
7328,113.281250
7329,113.281250
7330,113.281250
7331,113.281250
7332,113.281250
7333,113.281250
7334,113.281250
7335,113.281250
7336,109.375000
7337,109.375000
7338,109.375000
7339,109.375000
7340,109.375000
7341,109.375000
7342,109.375000
7343,109.375000
7344,105.468750
7345,105.468750
7346,105.468750
7347,105.468750
7348,105.468750
7349,105.468750
7350,105.468750
7351,105.468750
7352,101.562500
7353,101.562500
7354,101.562500
7355,101.562500
7356,101.562500
7357,101.562500
7358,101.562500
7359,97.656250
7360,97.656250
7361,97.656250
7362,97.656250
7363,97.656250
7364,97.656250
7365,97.656250
7366,97.656250
7367,93.750000
7368,93.750000
7369,93.750000
7370,93.750000
7371,93.750000
7372,93.750000
7373,89.843750
7374,89.843750
7375,89.843750
7376,89.843750
7377,89.843750
7378,89.843750
7379,89.843750
7380,85.937500
7381,85.937500
7382,85.937500
7383,85.937500
7384,85.937500
7385,85.937500
7386,82.031250
7387,82.031250
7388,82.031250
7389,82.031250
7390,82.031250
7391,78.125000
7392,78.125000
7393,78.125000
7394,78.125000
7395,78.125000
7396,78.125000
7397,78.125000
7398,74.218750
7399,74.218750
7400,74.218750
7401,74.218750
7402,70.312500
7403,70.312500
7404,70.312500
7405,70.312500
7406,70.312500
7407,70.312500
7408,66.406250
7409,66.406250
7410,66.406250
7411,66.406250
7412,66.406250
7413,62.500000
7414,62.500000
7415,62.500000
7416,62.500000
7417,58.593750
7418,58.593750
7419,58.593750
7420,58.593750
7421,58.593750
7422,54.687500
7423,54.687500
7424,54.687500
7425,54.687500
7426,54.687500
7427,50.781250
7428,50.781250
7429,50.781250
7430,50.781250
7431,46.875000
7432,46.875000
7433,46.875000
7434,46.875000
7435,46.875000
7436,46.875000
7437,42.968750
7438,42.968750
7439,42.968750
7440,39.062500
7441,39.062500
7442,39.062500
7443,39.062500
7444,39.062500
7445,35.156250
7446,35.156250
7447,35.156250
7448,35.156250
7449,31.250000
7450,31.250000
7451,31.250000
7452,31.250000
7453,27.343750
7454,27.343750
7455,27.343750
7456,27.343750
7457,23.437500
7458,23.437500
7459,23.437500
7460,23.437500
7461,23.437500
7462,19.531250
7463,19.531250
7464,19.531250
7465,19.531250
7466,15.625000
7467,15.625000
7468,15.625000
7469,11.718750
7470,11.718750
7471,11.718750
7472,11.718750
7473,11.718750
7474,7.812500
7475,7.812500
7476,3.906250
7477,3.906250
7478,3.906250
7479,3.906250
7480,3.906250
7481,0.000000
7482,0.000000
7483,0.000000
7484,0.000000
7485,-3.906250
7486,-3.906250
7487,-3.906250
7488,-3.906250
7489,-7.812500
7490,-7.812500
7491,-7.812500
7492,-7.812500
7493,-11.718750
7494,-11.718750
7495,-11.718750
7496,-11.718750
7497,-15.625000
7498,-15.625000
7499,-15.625000
7500,-19.531250
7501,-19.531250
7502,-19.531250
7503,-19.531250
7504,-19.531250
7505,-23.437500
7506,-23.437500
7507,-23.437500
7508,-27.343750
7509,-27.343750
7510,-27.343750
7511,-27.343750
7512,-27.343750
7513,-31.250000
7514,-31.250000
7515,-31.250000
7516,-35.156250
7517,-35.156250
7518,-35.156250
7519,-35.156250
7520,-39.062500
7521,-39.062500
7522,-39.062500
7523,-39.062500
7524,-39.062500
7525,-42.968750
7526,-42.968750
7527,-46.875000
7528,-46.875000
7529,-46.875000
7530,-46.875000
7531,-50.781250
7532,-50.781250
7533,-50.781250
7534,-50.781250
7535,-54.687500
7536,-54.687500
7537,-54.687500
7538,-54.687500
7539,-58.593750
7540,-58.593750
7541,-58.593750
7542,-58.593750
7543,-62.500000
7544,-62.500000
7545,-62.500000
7546,-62.500000
7547,-66.406250
7548,-66.406250
7549,-66.406250
7550,-66.406250
7551,-70.312500
7552,-70.312500
7553,-70.312500
7554,-74.218750
7555,-74.218750
7556,-74.218750
7557,-74.218750
7558,-74.218750
7559,-74.218750
7560,-78.125000
7561,-78.125000
7562,-78.125000
7563,-82.031250
7564,-82.031250
7565,-82.031250
7566,-82.031250
7567,-85.937500
7568,-85.937500
7569,-85.937500
7570,-85.937500
7571,-89.843750
7572,-89.843750
7573,-89.843750
7574,-89.843750
7575,-89.843750
7576,-93.750000
7577,-93.750000
7578,-93.750000
7579,-97.656250
7580,-97.656250
7581,-97.656250
7582,-97.656250
7583,-97.656250
7584,-101.562500
7585,-101.562500
7586,-101.562500
7587,-101.562500
7588,-101.562500
7589,-105.468750
7590,-105.468750
7591,-105.468750
7592,-105.468750
7593,-109.375000
7594,-109.375000
7595,-109.375000
7596,-113.281250
7597,-113.281250
7598,-113.281250
7599,-113.281250
7600,-113.281250
7601,-113.281250
7602,-117.187500
7603,-117.187500
7604,-117.187500
7605,-117.187500
7606,-121.093750
7607,-121.093750
7608,-121.093750
7609,-121.093750
7610,-121.093750
7611,-125.000000
7612,-125.000000
7613,-125.000000
7614,-125.000000
7615,-125.000000
7616,-128.906250
7617,-128.906250
7618,-128.906250
7619,-128.906250
7620,-128.906250
7621,-132.812500
7622,-132.812500
7623,-132.812500
7624,-132.812500
7625,-132.812500
7626,-136.718750
7627,-136.718750
7628,-136.718750
7629,-136.718750
7630,-136.718750
7631,-140.625000
7632,-140.625000
7633,-140.625000
7634,-140.625000
7635,-140.625000
7636,-140.625000
7637,-144.531250
7638,-144.531250
7639,-144.531250
7640,-144.531250
7641,-144.531250
7642,-144.531250
7643,-144.531250
7644,-144.531250
7645,-148.437500
7646,-148.437500
7647,-148.437500
7648,-148.437500
7649,-152.343750
7650,-152.343750
7651,-152.343750
7652,-152.343750
7653,-152.343750
7654,-152.343750
7655,-152.343750
7656,-156.250000
7657,-156.250000
7658,-156.250000
7659,-156.250000
7660,-156.250000
7661,-156.250000
7662,-156.250000
7663,-156.250000
7664,-160.156250
7665,-160.156250
7666,-160.156250
7667,-160.156250
7668,-160.156250
7669,-160.156250
7670,-160.156250
7671,-164.062500
7672,-164.062500
7673,-160.156250
7674,-164.062500
7675,-164.062500
7676,-164.062500
7677,-164.062500
7678,-164.062500
7679,-164.062500
7680,-164.062500
7681,-164.062500
7682,-167.968750
7683,-167.968750
7684,-167.968750
7685,-167.968750
7686,-167.968750
7687,-167.968750
7688,-167.968750
7689,-167.968750
7690,-167.968750
7691,-167.968750
7692,-171.875000
7693,-171.875000
7694,-171.875000
7695,-171.875000
7696,-171.875000
7697,-171.875000
7698,-171.875000
7699,-171.875000
7700,-171.875000
7701,-171.875000
7702,-171.875000
7703,-171.875000
7704,-171.875000
7705,-175.781250
7706,-175.781250
7707,-175.781250
7708,-175.781250
7709,-175.781250
7710,-175.781250
7711,-175.781250
7712,-175.781250
7713,-175.781250
7714,-175.781250
7715,-175.781250
7716,-175.781250
7717,-175.781250
7718,-175.781250
7719,-175.781250
7720,-175.781250
7721,-175.781250
7722,-175.781250
7723,-175.781250
7724,-175.781250
7725,-175.781250
7726,-175.781250
7727,-175.781250
7728,-175.781250
7729,-175.781250
7730,-175.781250
7731,-179.687500
7732,-179.687500
7733,-179.687500
7734,-179.687500
7735,-179.687500
7736,-175.781250
7737,-175.781250
7738,-175.781250
7739,-175.781250
7740,-175.781250
7741,-179.687500
7742,-179.687500
7743,-179.687500
7744,-175.781250
7745,-175.781250
7746,-175.781250
7747,-175.781250
7748,-175.781250
7749,-175.781250
7750,-175.781250
7751,-175.781250
7752,-175.781250
7753,-175.781250
7754,-175.781250
7755,-175.781250
7756,-175.781250
7757,-175.781250
7758,-175.781250
7759,-175.781250
7760,-175.781250
7761,-175.781250
7762,-175.781250
7763,-175.781250
7764,-175.781250
7765,-175.781250
7766,-175.781250
7767,-175.781250
7768,-171.875000
7769,-171.875000
7770,-171.875000
7771,-171.875000
7772,-171.875000
7773,-171.875000
7774,-171.875000
7775,-171.875000
7776,-171.875000
7777,-171.875000
7778,-171.875000
7779,-171.875000
7780,-171.875000
7781,-171.875000
7782,-171.875000
7783,-171.875000
7784,-167.968750
7785,-167.968750
7786,-167.968750
7787,-167.968750
7788,-167.968750
7789,-167.968750
7790,-167.968750
7791,-167.968750
7792,-167.968750
7793,-164.062500
7794,-167.968750
7795,-164.062500
7796,-164.062500
7797,-164.062500
7798,-164.062500
7799,-164.062500
7800,-164.062500
7801,-164.062500
7802,-164.062500
7803,-160.156250
7804,-160.156250
7805,-160.156250
7806,-160.156250
7807,-160.156250
7808,-160.156250
7809,-160.156250
7810,-160.156250
7811,-160.156250
7812,-156.250000
7813,-156.250000
7814,-156.250000
7815,-156.250000
7816,-156.250000
7817,-156.250000
7818,-156.250000
7819,-152.343750
7820,-152.343750
7821,-152.343750
7822,-152.343750
7823,-152.343750
7824,-152.343750
7825,-148.437500
7826,-152.343750
7827,-148.437500
7828,-148.437500
7829,-148.437500
7830,-148.437500
7831,-148.437500
7832,-148.437500
7833,-144.531250
7834,-144.531250
7835,-144.531250
7836,-144.531250
7837,-144.531250
7838,-140.625000
7839,-140.625000
7840,-140.625000
7841,-140.625000
7842,-140.625000
7843,-140.625000
7844,-136.718750
7845,-136.718750
7846,-136.718750
7847,-136.718750
7848,-136.718750
7849,-132.812500
7850,-132.812500
7851,-132.812500
7852,-132.812500
7853,-132.812500
7854,-132.812500
7855,-128.906250
7856,-128.906250
7857,-128.906250
7858,-128.906250
7859,-128.906250
7860,-125.000000
7861,-125.000000
7862,-125.000000
7863,-125.000000
7864,-121.093750
7865,-121.093750
7866,-121.093750
7867,-121.093750
7868,-121.093750
7869,-121.093750
7870,-117.187500
7871,-117.187500
7872,-117.187500
7873,-117.187500
7874,-113.281250
7875,-113.281250
7876,-113.281250
7877,-113.281250
7878,-109.375000
7879,-109.375000
7880,-109.375000
7881,-109.375000
7882,-109.375000
7883,-105.468750
7884,-105.468750
7885,-105.468750
7886,-105.468750
7887,-105.468750
7888,-101.562500
7889,-101.562500
7890,-101.562500
7891,-101.562500
7892,-101.562500
7893,-97.656250
7894,-97.656250
7895,-97.656250
7896,-97.656250
7897,-93.750000
7898,-93.750000
7899,-93.750000
7900,-89.843750
7901,-89.843750
7902,-89.843750
7903,-89.843750
7904,-89.843750
7905,-85.937500
7906,-85.937500
7907,-85.937500
7908,-82.031250
7909,-82.031250
7910,-82.031250
7911,-82.031250
7912,-82.031250
7913,-78.125000
7914,-78.125000
7915,-78.125000
7916,-74.218750
7917,-74.218750
7918,-74.218750
7919,-74.218750
7920,-74.218750
7921,-74.218750
7922,-70.312500
7923,-70.312500
7924,-66.406250
7925,-66.406250
7926,-66.406250
7927,-66.406250
7928,-66.406250
7929,-66.406250
7930,-62.500000
7931,-62.500000
7932,-58.593750
7933,-58.593750
7934,-58.593750
7935,-58.593750
7936,-58.593750
7937,-54.687500
7938,-54.687500
7939,-54.687500
7940,-54.687500
7941,-50.781250
7942,-50.781250
7943,-50.781250
7944,-50.781250
7945,-46.875000
7946,-46.875000
7947,-46.875000
7948,-46.875000
7949,-42.968750
7950,-42.968750
7951,-42.968750
7952,-39.062500
7953,-39.062500
7954,-39.062500
7955,-39.062500
7956,-39.062500
7957,-35.156250
7958,-35.156250
7959,-35.156250
7960,-31.250000
7961,-31.250000
7962,-31.250000
7963,-31.250000
7964,-31.250000
7965,-27.343750
7966,-27.343750
7967,-27.343750
7968,-23.437500
7969,-23.437500
7970,-23.437500
7971,-23.437500
7972,-23.437500
7973,-19.531250
7974,-19.531250
7975,-19.531250
7976,-15.625000
7977,-15.625000
7978,-15.625000
7979,-15.625000
7980,-15.625000
7981,-11.718750
7982,-11.718750
7983,-11.718750
7984,-7.812500
7985,-7.812500
7986,-7.812500
7987,-7.812500
7988,-7.812500
7989,-3.906250
7990,-3.906250
7991,-3.906250
7992,0.000000
7993,0.000000
7994,0.000000
7995,0.000000
7996,3.906250
7997,3.906250
7998,3.906250
7999,7.812500
8000,7.812500
8001,7.812500
8002,7.812500
8003,7.812500
8004,11.718750
8005,11.718750
8006,11.718750
8007,11.718750
8008,11.718750
8009,15.625000
8010,15.625000
8011,15.625000
8012,19.531250
8013,19.531250
8014,19.531250
8015,19.531250
8016,23.437500
8017,23.437500
8018,23.437500
8019,23.437500
8020,23.437500
8021,27.343750
8022,27.343750
8023,27.343750
8024,31.250000
8025,31.250000
8026,31.250000
8027,31.250000
8028,31.250000
8029,31.250000
8030,35.156250
8031,35.156250
8032,35.156250
8033,35.156250
8034,39.062500
8035,39.062500
8036,39.062500
8037,39.062500
8038,42.968750
8039,42.968750
8040,42.968750
8041,42.968750
8042,46.875000
8043,46.875000
8044,46.875000
8045,46.875000
8046,46.875000
8047,50.781250
8048,50.781250
8049,50.781250
8050,50.781250
8051,50.781250
8052,54.687500
8053,54.687500
8054,54.687500
8055,54.687500
8056,58.593750
8057,58.593750
8058,58.593750
8059,58.593750
8060,58.593750
8061,58.593750
8062,58.593750
8063,62.500000
8064,62.500000
8065,62.500000
8066,62.500000
8067,66.406250
8068,66.406250
8069,66.406250
8070,66.406250
8071,66.406250
8072,66.406250
8073,70.312500
8074,70.312500
8075,70.312500
8076,70.312500
8077,70.312500
8078,74.218750
8079,74.218750
8080,74.218750
8081,74.218750
8082,74.218750
8083,74.218750
8084,78.125000
8085,78.125000
8086,78.125000
8087,78.125000
8088,78.125000
8089,82.031250
8090,82.031250
8091,82.031250
8092,82.031250
8093,82.031250
8094,82.031250
8095,85.937500
8096,85.937500
8097,85.937500
8098,85.937500
8099,85.937500
8100,85.937500
8101,89.843750
8102,89.843750
8103,89.843750
8104,89.843750
8105,89.843750
8106,89.843750
8107,93.750000
8108,89.843750
8109,93.750000
8110,93.750000
8111,93.750000
8112,93.750000
8113,93.750000
8114,93.750000
8115,93.750000
8116,97.656250
8117,97.656250
8118,97.656250
8119,97.656250
8120,101.562500
8121,101.562500
8122,101.562500
8123,101.562500
8124,101.562500
8125,101.562500
8126,101.562500
8127,101.562500
8128,101.562500
8129,105.468750
8130,105.468750
8131,105.468750
8132,105.468750
8133,105.468750
8134,105.468750
8135,105.468750
8136,105.468750
8137,105.468750
8138,109.375000
8139,109.375000
8140,109.375000
8141,109.375000
8142,109.375000
8143,109.375000
8144,109.375000
8145,109.375000
8146,109.375000
8147,113.281250
8148,113.281250
8149,113.281250
8150,113.281250
8151,113.281250
8152,113.281250
8153,113.281250
8154,113.281250
8155,113.281250
8156,117.187500
8157,117.187500
8158,117.187500
8159,117.187500
8160,117.187500
8161,117.187500
8162,117.187500
8163,117.187500
8164,117.187500
8165,117.187500
8166,117.187500
8167,117.187500
8168,121.093750
8169,121.093750
8170,121.093750
8171,121.093750
8172,121.093750
8173,121.093750
8174,121.093750
8175,121.093750
8176,121.093750
8177,121.093750
8178,121.093750
8179,121.093750
8180,125.000000
8181,125.000000
8182,125.000000
8183,125.000000
8184,125.000000
8185,125.000000
8186,125.000000
8187,125.000000
8188,125.000000
8189,125.000000
8190,125.000000
8191,125.000000
8192,125.000000
8193,125.000000
8194,125.000000
8195,125.000000
8196,125.000000
8197,125.000000
8198,128.906250
8199,128.906250
8200,128.906250
8201,128.906250
8202,128.906250
8203,128.906250
8204,128.906250
8205,128.906250
8206,128.906250
8207,128.906250
8208,128.906250
8209,128.906250
8210,128.906250
8211,128.906250
8212,128.906250
8213,128.906250
8214,128.906250
8215,128.906250
8216,128.906250
8217,128.906250
8218,128.906250
8219,128.906250
8220,128.906250
8221,128.906250
8222,128.906250
8223,128.906250
8224,128.906250
8225,128.906250
8226,132.812500
8227,128.906250
8228,128.906250
8229,128.906250
8230,128.906250
8231,128.906250
8232,128.906250
8233,128.906250
8234,132.812500
8235,132.812500
8236,128.906250
8237,128.906250
8238,128.906250
8239,128.906250
8240,128.906250
8241,128.906250
8242,128.906250
8243,128.906250
8244,132.812500
8245,128.906250
8246,128.906250
8247,128.906250
8248,128.906250
8249,128.906250
8250,128.906250
8251,128.906250
8252,128.906250
8253,128.906250
8254,128.906250
8255,128.906250
8256,128.906250
8257,128.906250
8258,128.906250
8259,128.906250
8260,128.906250
8261,128.906250
8262,128.906250
8263,128.906250
8264,128.906250
8265,128.906250
8266,128.906250
8267,128.906250
8268,128.906250
8269,128.906250
8270,128.906250
8271,128.906250
8272,128.906250
8273,125.000000
8274,128.906250
8275,125.000000
8276,125.000000
8277,125.000000
8278,125.000000
8279,125.000000
8280,125.000000
8281,125.000000
8282,125.000000
8283,125.000000
8284,125.000000
8285,125.000000
8286,125.000000
8287,125.000000
8288,125.000000
8289,125.000000
8290,125.000000
8291,125.000000
8292,121.093750
8293,121.093750
8294,121.093750
8295,121.093750
8296,121.093750
8297,121.093750
8298,121.093750
8299,121.093750
8300,121.093750
8301,121.093750
8302,121.093750
8303,121.093750
8304,121.093750
8305,121.093750
8306,121.093750
8307,117.187500
8308,117.187500
8309,117.187500
8310,117.187500
8311,117.187500
8312,117.187500
8313,117.187500
8314,117.187500
8315,117.187500
8316,117.187500
8317,113.281250
8318,113.281250
8319,113.281250
8320,113.281250
8321,113.281250
8322,113.281250
8323,113.281250
8324,113.281250
8325,113.281250
8326,109.375000
8327,109.375000
8328,109.375000
8329,109.375000
8330,109.375000
8331,109.375000
8332,109.375000
8333,109.375000
8334,109.375000
8335,105.468750
8336,105.468750
8337,105.468750
8338,105.468750
8339,105.468750
8340,105.468750
8341,105.468750
8342,101.562500
8343,101.562500
8344,101.562500
8345,101.562500
8346,101.562500
8347,101.562500
8348,101.562500
8349,97.656250
8350,97.656250
8351,97.656250
8352,97.656250
8353,97.656250
8354,97.656250
8355,97.656250
8356,93.750000
8357,93.750000
8358,93.750000
8359,93.750000
8360,93.750000
8361,93.750000
8362,89.843750
8363,89.843750
8364,89.843750
8365,89.843750
8366,89.843750
8367,89.843750
8368,89.843750
8369,85.937500
8370,85.937500
8371,85.937500
8372,85.937500
8373,85.937500
8374,85.937500
8375,82.031250
8376,82.031250
8377,82.031250
8378,82.031250
8379,82.031250
8380,82.031250
8381,82.031250
8382,78.125000
8383,78.125000
8384,78.125000
8385,78.125000
8386,74.218750
8387,74.218750
8388,74.218750
8389,74.218750
8390,74.218750
8391,74.218750
8392,70.312500
8393,70.312500
8394,70.312500
8395,70.312500
8396,66.406250
8397,66.406250
8398,66.406250
8399,66.406250
8400,66.406250
8401,66.406250
8402,62.500000
8403,62.500000
8404,62.500000
8405,62.500000
8406,62.500000
8407,58.593750
8408,58.593750
8409,58.593750
8410,58.593750
8411,58.593750
8412,54.687500
8413,54.687500
8414,54.687500
8415,54.687500
8416,54.687500
8417,50.781250
8418,50.781250
8419,50.781250
8420,50.781250
8421,46.875000
8422,46.875000
8423,46.875000
8424,46.875000
8425,46.875000
8426,42.968750
8427,42.968750
8428,42.968750
8429,42.968750
8430,39.062500
8431,39.062500
8432,39.062500
8433,39.062500
8434,35.156250
8435,35.156250
8436,35.156250
8437,35.156250
8438,35.156250
8439,31.250000
8440,31.250000
8441,31.250000
8442,31.250000
8443,31.250000
8444,27.343750
8445,27.343750
8446,27.343750
8447,27.343750
8448,23.437500
8449,23.437500
8450,23.437500
8451,23.437500
8452,19.531250
8453,19.531250
8454,19.531250
8455,15.625000
8456,15.625000
8457,15.625000
8458,15.625000
8459,15.625000
8460,11.718750
8461,11.718750
8462,11.718750
8463,11.718750
8464,7.812500
8465,7.812500
8466,7.812500
8467,7.812500
8468,3.906250
8469,3.906250
8470,3.906250
8471,3.906250
8472,0.000000
8473,0.000000
8474,0.000000
8475,0.000000
8476,-3.906250
8477,-3.906250
8478,-3.906250
8479,-7.812500
8480,-3.906250
8481,-7.812500
8482,-7.812500
8483,-7.812500
8484,-11.718750
8485,-11.718750
8486,-11.718750
8487,-15.625000
8488,-15.625000
8489,-15.625000
8490,-19.531250
8491,-19.531250
8492,-19.531250
8493,-19.531250
8494,-23.437500
8495,-23.437500
8496,-23.437500
8497,-23.437500
8498,-23.437500
8499,-27.343750
8500,-27.343750
8501,-27.343750
8502,-31.250000
8503,-31.250000
8504,-31.250000
8505,-31.250000
8506,-35.156250
8507,-35.156250
8508,-35.156250
8509,-35.156250
8510,-39.062500
8511,-39.062500
8512,-39.062500
8513,-42.968750
8514,-42.968750
8515,-42.968750
8516,-42.968750
8517,-46.875000
8518,-46.875000
8519,-46.875000
8520,-46.875000
8521,-50.781250
8522,-50.781250
8523,-50.781250
8524,-50.781250
8525,-54.687500
8526,-54.687500
8527,-54.687500
8528,-54.687500
8529,-58.593750
8530,-58.593750
8531,-58.593750
8532,-58.593750
8533,-62.500000
8534,-62.500000
8535,-62.500000
8536,-62.500000
8537,-66.406250
8538,-66.406250
8539,-66.406250
8540,-66.406250
8541,-70.312500
8542,-70.312500
8543,-70.312500
8544,-70.312500
8545,-74.218750
8546,-74.218750
8547,-74.218750
8548,-78.125000
8549,-78.125000
8550,-78.125000
8551,-78.125000
8552,-78.125000
8553,-82.031250
8554,-82.031250
8555,-82.031250
8556,-82.031250
8557,-85.937500
8558,-85.937500
8559,-85.937500
8560,-85.937500
8561,-89.843750
8562,-89.843750
8563,-89.843750
8564,-89.843750
8565,-93.750000
8566,-93.750000
8567,-93.750000
8568,-93.750000
8569,-97.656250
8570,-97.656250
8571,-97.656250
8572,-97.656250
8573,-97.656250
8574,-101.562500
8575,-101.562500
8576,-101.562500
8577,-101.562500
8578,-105.468750
8579,-105.468750
8580,-105.468750
8581,-105.468750
8582,-105.468750
8583,-109.375000
8584,-109.375000
8585,-109.375000
8586,-109.375000
8587,-113.281250
8588,-113.281250
8589,-113.281250
8590,-113.281250
8591,-113.281250
8592,-117.187500
8593,-117.187500
8594,-117.187500
8595,-117.187500
8596,-121.093750
8597,-121.093750
8598,-121.093750
8599,-121.093750
8600,-121.093750
8601,-125.000000
8602,-125.000000
8603,-125.000000
8604,-125.000000
8605,-125.000000
8606,-128.906250
8607,-128.906250
8608,-128.906250
8609,-128.906250
8610,-128.906250
8611,-132.812500
8612,-132.812500
8613,-132.812500
8614,-132.812500
8615,-132.812500
8616,-136.718750
8617,-136.718750
8618,-136.718750
8619,-136.718750
8620,-136.718750
8621,-140.625000
8622,-140.625000
8623,-140.625000
8624,-140.625000
8625,-140.625000
8626,-140.625000
8627,-144.531250
8628,-144.531250
8629,-144.531250
8630,-144.531250
8631,-144.531250
8632,-144.531250
8633,-148.437500
8634,-148.437500
8635,-148.437500
8636,-148.437500
8637,-148.437500
8638,-148.437500
8639,-152.343750
8640,-148.437500
8641,-152.343750
8642,-152.343750
8643,-152.343750
8644,-152.343750
8645,-152.343750
8646,-156.250000
8647,-156.250000
8648,-156.250000
8649,-156.250000
8650,-156.250000
8651,-156.250000
8652,-156.250000
8653,-160.156250
8654,-160.156250
8655,-160.156250
8656,-160.156250
8657,-160.156250
8658,-160.156250
8659,-160.156250
8660,-164.062500
8661,-164.062500
8662,-164.062500
8663,-164.062500
8664,-164.062500
8665,-164.062500
8666,-164.062500
8667,-164.062500
8668,-164.062500
8669,-164.062500
8670,-164.062500
8671,-164.062500
8672,-167.968750
8673,-167.968750
8674,-167.968750
8675,-167.968750
8676,-167.968750
8677,-167.968750
8678,-167.968750
8679,-167.968750
8680,-167.968750
8681,-167.968750
8682,-167.968750
8683,-171.875000
8684,-171.875000
8685,-171.875000
8686,-171.875000
8687,-171.875000
8688,-171.875000
8689,-171.875000
8690,-171.875000
8691,-171.875000
8692,-171.875000
8693,-171.875000
8694,-171.875000
8695,-175.781250
8696,-171.875000
8697,-171.875000
8698,-171.875000
8699,-171.875000
8700,-175.781250
8701,-175.781250
8702,-175.781250
8703,-175.781250
8704,-175.781250
8705,-175.781250
8706,-175.781250
8707,-175.781250
8708,-175.781250
8709,-175.781250
8710,-175.781250
8711,-175.781250
8712,-175.781250
8713,-175.781250
8714,-175.781250
8715,-175.781250
8716,-175.781250
8717,-175.781250
8718,-175.781250
8719,-175.781250
8720,-175.781250
8721,-175.781250
8722,-175.781250
8723,-175.781250
8724,-179.687500
8725,-179.687500
8726,-179.687500
8727,-179.687500
8728,-175.781250
8729,-175.781250
8730,-175.781250
8731,-175.781250
8732,-179.687500
8733,-175.781250
8734,-179.687500
8735,-175.781250
8736,-175.781250
8737,-175.781250
8738,-175.781250
8739,-175.781250
8740,-175.781250
8741,-175.781250
8742,-175.781250
8743,-175.781250
8744,-175.781250
8745,-175.781250
8746,-175.781250
8747,-175.781250
8748,-175.781250
8749,-175.781250
8750,-175.781250
8751,-175.781250
8752,-175.781250
8753,-175.781250
8754,-175.781250
8755,-175.781250
8756,-175.781250
8757,-175.781250
8758,-175.781250
8759,-171.875000
8760,-171.875000
8761,-171.875000
8762,-175.781250
8763,-171.875000
8764,-171.875000
8765,-171.875000
8766,-171.875000
8767,-171.875000
8768,-171.875000
8769,-171.875000
8770,-171.875000
8771,-171.875000
8772,-167.968750
8773,-167.968750
8774,-167.968750
8775,-167.968750
8776,-167.968750
8777,-167.968750
8778,-167.968750
8779,-167.968750
8780,-167.968750
8781,-167.968750
8782,-167.968750
8783,-167.968750
8784,-167.968750
8785,-167.968750
8786,-164.062500
8787,-164.062500
8788,-164.062500
8789,-164.062500
8790,-164.062500
8791,-164.062500
8792,-164.062500
8793,-160.156250
8794,-160.156250
8795,-160.156250
8796,-160.156250
8797,-160.156250
8798,-160.156250
8799,-160.156250
8800,-160.156250
8801,-160.156250
8802,-156.250000
8803,-156.250000
8804,-156.250000
8805,-156.250000
8806,-156.250000
8807,-156.250000
8808,-156.250000
8809,-152.343750
8810,-152.343750
8811,-148.437500
8812,-152.343750
8813,-152.343750
8814,-152.343750
8815,-152.343750
8816,-148.437500
8817,-148.437500
8818,-148.437500
8819,-148.437500
8820,-148.437500
8821,-148.437500
8822,-148.437500
8823,-144.531250
8824,-144.531250
8825,-144.531250
8826,-144.531250
8827,-140.625000
8828,-140.625000
8829,-140.625000
8830,-140.625000
8831,-140.625000
8832,-140.625000
8833,-140.625000
8834,-136.718750
8835,-136.718750
8836,-136.718750
8837,-136.718750
8838,-136.718750
8839,-136.718750
8840,-132.812500
8841,-132.812500
8842,-132.812500
8843,-132.812500
8844,-132.812500
8845,-128.906250
8846,-128.906250
8847,-128.906250
8848,-128.906250
8849,-128.906250
8850,-125.000000
8851,-125.000000
8852,-125.000000
8853,-125.000000
8854,-125.000000
8855,-121.093750
8856,-121.093750
8857,-121.093750
8858,-121.093750
8859,-121.093750
8860,-117.187500
8861,-117.187500
8862,-117.187500
8863,-117.187500
8864,-113.281250
8865,-113.281250
8866,-113.281250
8867,-113.281250
8868,-113.281250
8869,-109.375000
8870,-109.375000
8871,-109.375000
8872,-109.375000
8873,-109.375000
8874,-105.468750
8875,-105.468750
8876,-105.468750
8877,-105.468750
8878,-101.562500
8879,-101.562500
8880,-101.562500
8881,-101.562500
8882,-101.562500
8883,-97.656250
8884,-97.656250
8885,-97.656250
8886,-97.656250
8887,-93.750000
8888,-93.750000
8889,-93.750000
8890,-93.750000
8891,-89.843750
8892,-89.843750
8893,-89.843750
8894,-89.843750
8895,-85.937500
8896,-85.937500
8897,-85.937500
8898,-85.937500
8899,-85.937500
8900,-82.031250
8901,-82.031250
8902,-82.031250
8903,-82.031250
8904,-78.125000
8905,-78.125000
8906,-78.125000
8907,-78.125000
8908,-74.218750
8909,-74.218750
8910,-74.218750
8911,-70.312500
8912,-70.312500
8913,-70.312500
8914,-70.312500
8915,-70.312500
8916,-66.406250
8917,-66.406250
8918,-66.406250
8919,-66.406250
8920,-62.500000
8921,-62.500000
8922,-62.500000
8923,-62.500000
8924,-58.593750
8925,-58.593750
8926,-58.593750
8927,-58.593750
8928,-54.687500
8929,-54.687500
8930,-54.687500
8931,-54.687500
8932,-50.781250
8933,-50.781250
8934,-50.781250
8935,-50.781250
8936,-46.875000
8937,-46.875000
8938,-46.875000
8939,-46.875000
8940,-42.968750
8941,-42.968750
8942,-42.968750
8943,-39.062500
8944,-39.062500
8945,-39.062500
8946,-39.062500
8947,-35.156250
8948,-35.156250
8949,-35.156250
8950,-35.156250
8951,-31.250000
8952,-31.250000
8953,-31.250000
8954,-31.250000
8955,-31.250000
8956,-27.343750
8957,-27.343750
8958,-23.437500
8959,-23.437500
8960,-23.437500
8961,-23.437500
8962,-23.437500
8963,-19.531250
8964,-19.531250
8965,-19.531250
8966,-19.531250
8967,-15.625000
8968,-15.625000
8969,-15.625000
8970,-11.718750
8971,-11.718750
8972,-11.718750
8973,-11.718750
8974,-7.812500
8975,-7.812500
8976,-7.812500
8977,-7.812500
8978,-3.906250
8979,-3.906250
8980,-3.906250
8981,-3.906250
8982,0.000000
8983,0.000000
8984,0.000000
8985,0.000000
8986,0.000000
8987,3.906250
8988,3.906250
8989,3.906250
8990,7.812500
8991,7.812500
8992,7.812500
8993,7.812500
8994,7.812500
8995,11.718750
8996,11.718750
8997,11.718750
8998,15.625000
8999,15.625000
9000,15.625000
9001,15.625000
9002,15.625000
9003,19.531250
9004,19.531250
9005,19.531250
9006,19.531250
9007,19.531250
9008,23.437500
9009,23.437500
9010,23.437500
9011,27.343750
9012,27.343750
9013,27.343750
9014,27.343750
9015,31.250000
9016,31.250000
9017,31.250000
9018,31.250000
9019,35.156250
9020,35.156250
9021,35.156250
9022,35.156250
9023,35.156250
9024,39.062500
9025,39.062500
9026,39.062500
9027,39.062500
9028,39.062500
9029,39.062500
9030,42.968750
9031,42.968750
9032,42.968750
9033,46.875000
9034,46.875000
9035,46.875000
9036,46.875000
9037,50.781250
9038,50.781250
9039,50.781250
9040,50.781250
9041,50.781250
9042,54.687500
9043,54.687500
9044,54.687500
9045,54.687500
9046,58.593750
9047,54.687500
9048,58.593750
9049,58.593750
9050,58.593750
9051,58.593750
9052,62.500000
9053,62.500000
9054,62.500000
9055,62.500000
9056,66.406250
9057,66.406250
9058,66.406250
9059,66.406250
9060,66.406250
9061,66.406250
9062,70.312500
9063,70.312500
9064,70.312500
9065,70.312500
9066,70.312500
9067,74.218750
9068,74.218750
9069,74.218750
9070,74.218750
9071,74.218750
9072,78.125000
9073,78.125000
9074,78.125000
9075,78.125000
9076,78.125000
9077,78.125000
9078,82.031250
9079,82.031250
9080,82.031250
9081,82.031250
9082,82.031250
9083,82.031250
9084,85.937500
9085,85.937500
9086,85.937500
9087,85.937500
9088,85.937500
9089,85.937500
9090,89.843750
9091,89.843750
9092,89.843750
9093,89.843750
9094,89.843750
9095,89.843750
9096,93.750000
9097,93.750000
9098,93.750000
9099,93.750000
9100,93.750000
9101,93.750000
9102,93.750000
9103,93.750000
9104,97.656250
9105,97.656250
9106,97.656250
9107,97.656250
9108,97.656250
9109,97.656250
9110,97.656250
9111,101.562500
9112,101.562500
9113,101.562500
9114,101.562500
9115,101.562500
9116,101.562500
9117,101.562500
9118,101.562500
9119,105.468750
9120,105.468750
9121,105.468750
9122,105.468750
9123,105.468750
9124,105.468750
9125,109.375000
9126,109.375000
9127,109.375000
9128,109.375000
9129,109.375000
9130,109.375000
9131,109.375000
9132,109.375000
9133,109.375000
9134,113.281250
9135,113.281250
9136,113.281250
9137,113.281250
9138,113.281250
9139,113.281250
9140,113.281250
9141,113.281250
9142,113.281250
9143,113.281250
9144,113.281250
9145,113.281250
9146,117.187500
9147,117.187500
9148,117.187500
9149,117.187500
9150,117.187500
9151,117.187500
9152,117.187500
9153,117.187500
9154,117.187500
9155,121.093750
9156,121.093750
9157,121.093750
9158,121.093750
9159,121.093750
9160,121.093750
9161,121.093750
9162,121.093750
9163,121.093750
9164,121.093750
9165,121.093750
9166,125.000000
9167,125.000000
9168,125.000000
9169,125.000000
9170,125.000000
9171,125.000000
9172,125.000000
9173,125.000000
9174,125.000000
9175,125.000000
9176,125.000000
9177,125.000000
9178,125.000000
9179,125.000000
9180,125.000000
9181,125.000000
9182,125.000000
9183,125.000000
9184,125.000000
9185,125.000000
9186,128.906250
9187,128.906250
9188,128.906250
9189,128.906250
9190,128.906250
9191,128.906250
9192,128.906250
9193,128.906250
9194,128.906250
9195,128.906250
9196,128.906250
9197,128.906250
9198,128.906250
9199,128.906250
9200,128.906250
9201,128.906250
9202,128.906250
9203,128.906250
9204,128.906250
9205,128.906250
9206,128.906250
9207,128.906250
9208,128.906250
9209,128.906250
9210,132.812500
9211,128.906250
9212,132.812500
9213,132.812500
9214,128.906250
9215,128.906250
9216,132.812500
9217,128.906250
9218,132.812500
9219,132.812500
9220,132.812500
9221,132.812500
9222,132.812500
9223,128.906250
9224,128.906250
9225,128.906250
9226,128.906250
9227,128.906250
9228,132.812500
9229,132.812500
9230,132.812500
9231,132.812500
9232,132.812500
9233,132.812500
9234,132.812500
9235,128.906250
9236,132.812500
9237,132.812500
9238,128.906250
9239,128.906250
9240,128.906250
9241,128.906250
9242,128.906250
9243,128.906250
9244,128.906250
9245,128.906250
9246,128.906250
9247,128.906250
9248,128.906250
9249,128.906250
9250,128.906250
9251,128.906250
9252,128.906250
9253,128.906250
9254,128.906250
9255,128.906250
9256,128.906250
9257,128.906250
9258,128.906250
9259,128.906250
9260,128.906250
9261,128.906250
9262,128.906250
9263,125.000000
9264,128.906250
9265,125.000000
9266,128.906250
9267,125.000000
9268,125.000000
9269,125.000000
9270,125.000000
9271,125.000000
9272,125.000000
9273,125.000000
9274,125.000000
9275,125.000000
9276,125.000000
9277,125.000000
9278,125.000000
9279,125.000000
9280,121.093750
9281,121.093750
9282,125.000000
9283,121.093750
9284,121.093750
9285,121.093750
9286,121.093750
9287,121.093750
9288,121.093750
9289,121.093750
9290,121.093750
9291,121.093750
9292,121.093750
9293,121.093750
9294,117.187500
9295,117.187500
9296,117.187500
9297,117.187500
9298,117.187500
9299,117.187500
9300,117.187500
9301,117.187500
9302,117.187500
9303,117.187500
9304,117.187500
9305,117.187500
9306,113.281250
9307,113.281250
9308,113.281250
9309,113.281250
9310,113.281250
9311,113.281250
9312,113.281250
9313,113.281250
9314,113.281250
9315,113.281250
9316,109.375000
9317,109.375000
9318,109.375000
9319,109.375000
9320,109.375000
9321,109.375000
9322,109.375000
9323,109.375000
9324,109.375000
9325,105.468750
9326,105.468750
9327,105.468750
9328,105.468750
9329,105.468750
9330,105.468750
9331,105.468750
9332,101.562500
9333,101.562500
9334,101.562500
9335,101.562500
9336,101.562500
9337,101.562500
9338,101.562500
9339,101.562500
9340,97.656250
9341,97.656250
9342,97.656250
9343,97.656250
9344,97.656250
9345,97.656250
9346,97.656250
9347,93.750000
9348,93.750000
9349,93.750000
9350,93.750000
9351,93.750000
9352,93.750000
9353,89.843750
9354,89.843750
9355,89.843750
9356,89.843750
9357,89.843750
9358,89.843750
9359,85.937500
9360,85.937500
9361,85.937500
9362,85.937500
9363,85.937500
9364,85.937500
9365,82.031250
9366,82.031250
9367,82.031250
9368,82.031250
9369,82.031250
9370,82.031250
9371,78.125000
9372,78.125000
9373,78.125000
9374,78.125000
9375,78.125000
9376,74.218750
9377,74.218750
9378,74.218750
9379,74.218750
9380,74.218750
9381,70.312500
9382,70.312500
9383,70.312500
9384,70.312500
9385,70.312500
9386,66.406250
9387,66.406250
9388,66.406250
9389,66.406250
9390,66.406250
9391,62.500000
9392,62.500000
9393,62.500000
9394,62.500000
9395,62.500000
9396,58.593750
9397,58.593750
9398,58.593750
9399,58.593750
9400,58.593750
9401,54.687500
9402,54.687500
9403,54.687500
9404,54.687500
9405,54.687500
9406,50.781250
9407,50.781250
9408,50.781250
9409,50.781250
9410,50.781250
9411,46.875000
9412,46.875000
9413,46.875000
9414,46.875000
9415,42.968750
9416,42.968750
9417,42.968750
9418,42.968750
9419,42.968750
9420,39.062500
9421,39.062500
9422,39.062500
9423,39.062500
9424,35.156250
9425,35.156250
9426,35.156250
9427,35.156250
9428,35.156250
9429,31.250000
9430,31.250000
9431,31.250000
9432,31.250000
9433,27.343750
9434,27.343750
9435,27.343750
9436,27.343750
9437,23.437500
9438,23.437500
9439,23.437500
9440,23.437500
9441,19.531250
9442,19.531250
9443,19.531250
9444,19.531250
9445,15.625000
9446,15.625000
9447,15.625000
9448,11.718750
9449,11.718750
9450,11.718750
9451,11.718750
9452,11.718750
9453,7.812500
9454,7.812500
9455,7.812500
9456,7.812500
9457,3.906250
9458,3.906250
9459,3.906250
9460,3.906250
9461,0.000000
9462,0.000000
9463,0.000000
9464,0.000000
9465,-3.906250
9466,-3.906250
9467,-3.906250
9468,-3.906250
9469,-7.812500
9470,-7.812500
9471,-7.812500
9472,-7.812500
9473,-11.718750
9474,-11.718750
9475,-11.718750
9476,-11.718750
9477,-15.625000
9478,-15.625000
9479,-15.625000
9480,-19.531250
9481,-19.531250
9482,-19.531250
9483,-19.531250
9484,-19.531250
9485,-23.437500
9486,-23.437500
9487,-23.437500
9488,-27.343750
9489,-27.343750
9490,-27.343750
9491,-27.343750
9492,-31.250000
9493,-31.250000
9494,-31.250000
9495,-31.250000
9496,-35.156250
9497,-35.156250
9498,-35.156250
9499,-39.062500
9500,-39.062500
9501,-39.062500
9502,-39.062500
9503,-42.968750
9504,-42.968750
9505,-42.968750
9506,-42.968750
9507,-46.875000
9508,-46.875000
9509,-46.875000
9510,-46.875000
9511,-50.781250
9512,-50.781250
9513,-50.781250
9514,-50.781250
9515,-54.687500
9516,-54.687500
9517,-54.687500
9518,-54.687500
9519,-54.687500
9520,-58.593750
9521,-58.593750
9522,-58.593750
9523,-62.500000
9524,-62.500000
9525,-62.500000
9526,-62.500000
9527,-66.406250
9528,-66.406250
9529,-66.406250
9530,-70.312500
9531,-70.312500
9532,-70.312500
9533,-70.312500
9534,-74.218750
9535,-74.218750
9536,-74.218750
9537,-74.218750
9538,-78.125000
9539,-78.125000
9540,-78.125000
9541,-78.125000
9542,-78.125000
9543,-82.031250
9544,-82.031250
9545,-82.031250
9546,-85.937500
9547,-85.937500
9548,-85.937500
9549,-85.937500
9550,-85.937500
9551,-89.843750
9552,-89.843750
9553,-89.843750
9554,-89.843750
9555,-93.750000
9556,-93.750000
9557,-93.750000
9558,-93.750000
9559,-93.750000
9560,-97.656250
9561,-97.656250
9562,-97.656250
9563,-101.562500
9564,-101.562500
9565,-101.562500
9566,-101.562500
9567,-105.468750
9568,-105.468750
9569,-105.468750
9570,-105.468750
9571,-105.468750
9572,-109.375000
9573,-109.375000
9574,-109.375000
9575,-109.375000
9576,-109.375000
9577,-113.281250
9578,-113.281250
9579,-113.281250
9580,-113.281250
9581,-113.281250
9582,-117.187500
9583,-117.187500
9584,-117.187500
9585,-117.187500
9586,-121.093750
9587,-121.093750
9588,-121.093750
9589,-121.093750
9590,-121.093750
9591,-125.000000
9592,-125.000000
9593,-125.000000
9594,-125.000000
9595,-128.906250
9596,-128.906250
9597,-128.906250
9598,-128.906250
9599,-128.906250
9600,-128.906250
9601,-132.812500
9602,-132.812500
9603,-132.812500
9604,-132.812500
9605,-132.812500
9606,-136.718750
9607,-136.718750
9608,-136.718750
9609,-136.718750
9610,-136.718750
9611,-136.718750
9612,-140.625000
9613,-140.625000
9614,-140.625000
9615,-140.625000
9616,-144.531250
9617,-144.531250
9618,-144.531250
9619,-144.531250
9620,-144.531250
9621,-144.531250
9622,-144.531250
9623,-148.437500
9624,-148.437500
9625,-148.437500
9626,-148.437500
9627,-148.437500
9628,-148.437500
9629,-152.343750
9630,-152.343750
9631,-152.343750
9632,-152.343750
9633,-152.343750
9634,-152.343750
9635,-152.343750
9636,-156.250000
9637,-156.250000
9638,-156.250000
9639,-156.250000
9640,-156.250000
9641,-156.250000
9642,-156.250000
9643,-156.250000
9644,-160.156250
9645,-160.156250
9646,-160.156250
9647,-160.156250
9648,-160.156250
9649,-160.156250
9650,-160.156250
9651,-160.156250
9652,-164.062500
9653,-164.062500
9654,-164.062500
9655,-164.062500
9656,-164.062500
9657,-164.062500
9658,-164.062500
9659,-164.062500
9660,-167.968750
9661,-167.968750
9662,-167.968750
9663,-167.968750
9664,-167.968750
9665,-167.968750
9666,-167.968750
9667,-167.968750
9668,-167.968750
9669,-167.968750
9670,-167.968750
9671,-171.875000
9672,-171.875000
9673,-171.875000
9674,-171.875000
9675,-171.875000
9676,-171.875000
9677,-171.875000
9678,-171.875000
9679,-171.875000
9680,-171.875000
9681,-171.875000
9682,-171.875000
9683,-171.875000
9684,-171.875000
9685,-175.781250
9686,-175.781250
9687,-175.781250
9688,-175.781250
9689,-175.781250
9690,-175.781250
9691,-175.781250
9692,-175.781250
9693,-175.781250
9694,-175.781250
9695,-175.781250
9696,-175.781250
9697,-175.781250
9698,-175.781250
9699,-175.781250
9700,-175.781250
9701,-175.781250
9702,-175.781250
9703,-175.781250
9704,-175.781250
9705,-179.687500
9706,-175.781250
9707,-175.781250
9708,-175.781250
9709,-175.781250
9710,-175.781250
9711,-175.781250
9712,-175.781250
9713,-175.781250
9714,-175.781250
9715,-175.781250
9716,-175.781250
9717,-179.687500
9718,-179.687500
9719,-175.781250
9720,-175.781250
9721,-179.687500
9722,-175.781250
9723,-175.781250
9724,-175.781250
9725,-175.781250
9726,-175.781250
9727,-175.781250
9728,-175.781250
9729,-175.781250
9730,-175.781250
9731,-179.687500
9732,-175.781250
9733,-175.781250
9734,-175.781250
9735,-175.781250
9736,-175.781250
9737,-175.781250
9738,-175.781250
9739,-175.781250
9740,-175.781250
9741,-175.781250
9742,-175.781250
9743,-175.781250
9744,-175.781250
9745,-175.781250
9746,-175.781250
9747,-175.781250
9748,-175.781250
9749,-175.781250
9750,-175.781250
9751,-175.781250
9752,-171.875000
9753,-171.875000
9754,-171.875000
9755,-171.875000
9756,-171.875000
9757,-171.875000
9758,-171.875000
9759,-171.875000
9760,-171.875000
9761,-171.875000
9762,-171.875000
9763,-171.875000
9764,-171.875000
9765,-167.968750
9766,-167.968750
9767,-167.968750
9768,-167.968750
9769,-167.968750
9770,-167.968750
9771,-167.968750
9772,-167.968750
9773,-167.968750
9774,-164.062500
9775,-167.968750
9776,-164.062500
9777,-164.062500
9778,-164.062500
9779,-164.062500
9780,-164.062500
9781,-164.062500
9782,-164.062500
9783,-164.062500
9784,-164.062500
9785,-164.062500
9786,-160.156250
9787,-160.156250
9788,-160.156250
9789,-160.156250
9790,-160.156250
9791,-160.156250
9792,-156.250000
9793,-160.156250
9794,-156.250000
9795,-156.250000
9796,-156.250000
9797,-156.250000
9798,-156.250000
9799,-152.343750
9800,-152.343750
9801,-152.343750
9802,-152.343750
9803,-152.343750
9804,-152.343750
9805,-152.343750
9806,-152.343750
9807,-148.437500
9808,-148.437500
9809,-148.437500
9810,-148.437500
9811,-148.437500
9812,-148.437500
9813,-144.531250
9814,-144.531250
9815,-144.531250
9816,-144.531250
9817,-144.531250
9818,-140.625000
9819,-140.625000
9820,-140.625000
9821,-140.625000
9822,-140.625000
9823,-140.625000
9824,-140.625000
9825,-136.718750
9826,-136.718750
9827,-136.718750
9828,-136.718750
9829,-136.718750
9830,-132.812500
9831,-132.812500
9832,-132.812500
9833,-132.812500
9834,-128.906250
9835,-128.906250
9836,-128.906250
9837,-128.906250
9838,-128.906250
9839,-125.000000
9840,-125.000000
9841,-125.000000
9842,-125.000000
9843,-125.000000
9844,-121.093750
9845,-121.093750
9846,-121.093750
9847,-121.093750
9848,-121.093750
9849,-117.187500
9850,-117.187500
9851,-117.187500
9852,-113.281250
9853,-113.281250
9854,-113.281250
9855,-113.281250
9856,-113.281250
9857,-113.281250
9858,-113.281250
9859,-109.375000
9860,-109.375000
9861,-109.375000
9862,-105.468750
9863,-105.468750
9864,-105.468750
9865,-105.468750
9866,-105.468750
9867,-101.562500
9868,-101.562500
9869,-101.562500
9870,-101.562500
9871,-101.562500
9872,-97.656250
9873,-97.656250
9874,-97.656250
9875,-97.656250
9876,-93.750000
9877,-93.750000
9878,-93.750000
9879,-93.750000
9880,-89.843750
9881,-89.843750
9882,-89.843750
9883,-89.843750
9884,-89.843750
9885,-85.937500
9886,-85.937500
9887,-85.937500
9888,-82.031250
9889,-82.031250
9890,-82.031250
9891,-82.031250
9892,-82.031250
9893,-78.125000
9894,-78.125000
9895,-78.125000
9896,-78.125000
9897,-74.218750
9898,-74.218750
9899,-74.218750
9900,-74.218750
9901,-70.312500
9902,-70.312500
9903,-70.312500
9904,-70.312500
9905,-66.406250
9906,-66.406250
9907,-66.406250
9908,-62.500000
9909,-62.500000
9910,-62.500000
9911,-62.500000
9912,-62.500000
9913,-58.593750
9914,-58.593750
9915,-58.593750
9916,-58.593750
9917,-54.687500
9918,-54.687500
9919,-54.687500
9920,-50.781250
9921,-50.781250
9922,-50.781250
9923,-50.781250
9924,-50.781250
9925,-46.875000
9926,-46.875000
9927,-46.875000
9928,-42.968750
9929,-42.968750
9930,-42.968750
9931,-42.968750
9932,-39.062500
9933,-39.062500
9934,-39.062500
9935,-39.062500
9936,-35.156250
9937,-35.156250
9938,-35.156250
9939,-35.156250
9940,-31.250000
9941,-31.250000
9942,-31.250000
9943,-27.343750
9944,-27.343750
9945,-27.343750
9946,-27.343750
9947,-27.343750
9948,-23.437500
9949,-23.437500
9950,-23.437500
9951,-19.531250
9952,-19.531250
9953,-19.531250
9954,-19.531250
9955,-19.531250
9956,-15.625000
9957,-15.625000
9958,-15.625000
9959,-11.718750
9960,-11.718750
9961,-11.718750
9962,-11.718750
9963,-7.812500
9964,-7.812500
9965,-7.812500
9966,-7.812500
9967,-3.906250
9968,-3.906250
9969,-3.906250
9970,-3.906250
9971,0.000000
9972,-3.906250
9973,0.000000
9974,3.906250
9975,3.906250
9976,3.906250
9977,3.906250
9978,3.906250
9979,3.906250
9980,7.812500
9981,7.812500
9982,11.718750
9983,11.718750
9984,11.718750
9985,11.718750
9986,11.718750
9987,15.625000
9988,15.625000
9989,15.625000
9990,15.625000
9991,19.531250
9992,19.531250
9993,19.531250
9994,19.531250
9995,23.437500
9996,23.437500
9997,23.437500
9998,23.437500
9999,23.437500
10000,27.343750
