Channel              :,CH1
Frequency            :,1.010kHz
Period               :,0.990ms
PK-PK                :,187.5mV
Probe attenuation    :,1X
Voltage per ADC value:,0.244141mV
Time interval        :,1.00000us

index,CH1_Voltage(mV)
1,-50.781250
2,-50.781250
3,-50.781250
4,-50.781250
5,-50.781250
6,-50.781250
7,-50.781250
8,-50.781250
9,-46.875000
10,-46.875000
11,-46.875000
12,-46.875000
13,-46.875000
14,-42.968750
15,-46.875000
16,-42.968750
17,-42.968750
18,-42.968750
19,-42.968750
20,-42.968750
21,-42.968750
22,-39.062500
23,-39.062500
24,-39.062500
25,-39.062500
26,-39.062500
27,-39.062500
28,-39.062500
29,-35.156250
30,-35.156250
31,-35.156250
32,-35.156250
33,-35.156250
34,-35.156250
35,-35.156250
36,-31.250000
37,-31.250000
38,-31.250000
39,-31.250000
40,-31.250000
41,-31.250000
42,-27.343750
43,-27.343750
44,-27.343750
45,-27.343750
46,-27.343750
47,-27.343750
48,-27.343750
49,-23.437500
50,-23.437500
51,-23.437500
52,-23.437500
53,-23.437500
54,-23.437500
55,-23.437500
56,-19.531250
57,-19.531250
58,-19.531250
59,-19.531250
60,-19.531250
61,-19.531250
62,-19.531250
63,-15.625000
64,-15.625000
65,-15.625000
66,-15.625000
67,-15.625000
68,-15.625000
69,-15.625000
70,-11.718750
71,-11.718750
72,-11.718750
73,-11.718750
74,-11.718750
75,-7.812500
76,-7.812500
77,-7.812500
78,-7.812500
79,-7.812500
80,-7.812500
81,-7.812500
82,-7.812500
83,-7.812500
84,-3.906250
85,-3.906250
86,-3.906250
87,-3.906250
88,-3.906250
89,-3.906250
90,0.000000
91,0.000000
92,0.000000
93,0.000000
94,0.000000
95,0.000000
96,0.000000
97,3.906250
98,3.906250
99,3.906250
100,3.906250
101,3.906250
102,3.906250
103,3.906250
104,7.812500
105,7.812500
106,7.812500
107,7.812500
108,7.812500
109,7.812500
110,11.718750
111,11.718750
112,11.718750
113,11.718750
114,11.718750
115,11.718750
116,11.718750
117,15.625000
118,15.625000
119,15.625000
120,15.625000
121,15.625000
122,15.625000
123,15.625000
124,15.625000
125,15.625000
126,19.531250
127,19.531250
128,19.531250
129,19.531250
130,19.531250
131,19.531250
132,19.531250
133,19.531250
134,23.437500
135,23.437500
136,23.437500
137,23.437500
138,27.343750
139,23.437500
140,23.437500
141,27.343750
142,27.343750
143,27.343750
144,27.343750
145,27.343750
146,27.343750
147,27.343750
148,31.250000
149,31.250000
150,31.250000
151,31.250000
152,31.250000
153,31.250000
154,31.250000
155,35.156250
156,35.156250
157,35.156250
158,35.156250
159,35.156250
160,35.156250
161,35.156250
162,35.156250
163,39.062500
164,39.062500
165,39.062500
166,39.062500
167,39.062500
168,39.062500
169,39.062500
170,39.062500
171,39.062500
172,42.968750
173,42.968750
174,42.968750
175,42.968750
176,42.968750
177,42.968750
178,42.968750
179,42.968750
180,42.968750
181,42.968750
182,46.875000
183,46.875000
184,46.875000
185,46.875000
186,46.875000
187,46.875000
188,46.875000
189,46.875000
190,46.875000
191,46.875000
192,50.781250
193,50.781250
194,50.781250
195,50.781250
196,50.781250
197,50.781250
198,50.781250
199,50.781250
200,50.781250
201,54.687500
202,54.687500
203,54.687500
204,54.687500
205,54.687500
206,54.687500
207,54.687500
208,54.687500
209,54.687500
210,54.687500
211,54.687500
212,54.687500
213,58.593750
214,58.593750
215,58.593750
216,58.593750
217,58.593750
218,58.593750
219,58.593750
220,58.593750
221,58.593750
222,58.593750
223,58.593750
224,58.593750
225,58.593750
226,62.500000
227,62.500000
228,62.500000
229,62.500000
230,62.500000
231,62.500000
232,62.500000
233,62.500000
234,62.500000
235,62.500000
236,62.500000
237,62.500000
238,66.406250
239,62.500000
240,66.406250
241,66.406250
242,66.406250
243,66.406250
244,66.406250
245,66.406250
246,66.406250
247,66.406250
248,66.406250
249,66.406250
250,66.406250
251,66.406250
252,66.406250
253,66.406250
254,66.406250
255,66.406250
256,66.406250
257,70.312500
258,70.312500
259,70.312500
260,70.312500
261,70.312500
262,70.312500
263,70.312500
264,70.312500
265,70.312500
266,70.312500
267,70.312500
268,70.312500
269,70.312500
270,70.312500
271,70.312500
272,70.312500
273,70.312500
274,70.312500
275,70.312500
276,74.218750
277,70.312500
278,70.312500
279,70.312500
280,70.312500
281,74.218750
282,70.312500
283,74.218750
284,74.218750
285,74.218750
286,74.218750
287,70.312500
288,74.218750
289,74.218750
290,74.218750
291,74.218750
292,74.218750
293,74.218750
294,74.218750
295,74.218750
296,74.218750
297,74.218750
298,74.218750
299,74.218750
300,74.218750
301,74.218750
302,74.218750
303,74.218750
304,74.218750
305,74.218750
306,74.218750
307,74.218750
308,74.218750
309,74.218750
310,74.218750
311,74.218750
312,74.218750
313,74.218750
314,74.218750
315,74.218750
316,74.218750
317,74.218750
318,74.218750
319,74.218750
320,74.218750
321,74.218750
322,74.218750
323,74.218750
324,74.218750
325,74.218750
326,74.218750
327,74.218750
328,74.218750
329,74.218750
330,74.218750
331,74.218750
332,74.218750
333,74.218750
334,74.218750
335,74.218750
336,74.218750
337,74.218750
338,74.218750
339,74.218750
340,74.218750
341,74.218750
342,74.218750
343,74.218750
344,74.218750
345,74.218750
346,74.218750
347,74.218750
348,74.218750
349,74.218750
350,74.218750
351,74.218750
352,74.218750
353,74.218750
354,74.218750
355,74.218750
356,74.218750
357,70.312500
358,74.218750
359,70.312500
360,70.312500
361,70.312500
362,70.312500
363,70.312500
364,70.312500
365,70.312500
366,70.312500
367,70.312500
368,70.312500
369,70.312500
370,70.312500
371,70.312500
372,70.312500
373,70.312500
374,70.312500
375,70.312500
376,70.312500
377,70.312500
378,70.312500
379,70.312500
380,70.312500
381,70.312500
382,66.406250
383,66.406250
384,70.312500
385,70.312500
386,66.406250
387,66.406250
388,66.406250
389,66.406250
390,66.406250
391,66.406250
392,66.406250
393,66.406250
394,66.406250
395,66.406250
396,66.406250
397,66.406250
398,66.406250
399,62.500000
400,62.500000
401,62.500000
402,62.500000
403,62.500000
404,62.500000
405,62.500000
406,62.500000
407,62.500000
408,62.500000
409,62.500000
410,62.500000
411,62.500000
412,62.500000
413,62.500000
414,62.500000
415,62.500000
416,58.593750
417,58.593750
418,58.593750
419,58.593750
420,58.593750
421,58.593750
422,58.593750
423,58.593750
424,58.593750
425,58.593750
426,58.593750
427,58.593750
428,54.687500
429,54.687500
430,54.687500
431,54.687500
432,54.687500
433,54.687500
434,54.687500
435,54.687500
436,54.687500
437,54.687500
438,54.687500
439,50.781250
440,50.781250
441,50.781250
442,50.781250
443,50.781250
444,50.781250
445,50.781250
446,50.781250
447,50.781250
448,50.781250
449,50.781250
450,50.781250
451,46.875000
452,46.875000
453,46.875000
454,46.875000
455,46.875000
456,46.875000
457,46.875000
458,46.875000
459,46.875000
460,46.875000
461,42.968750
462,42.968750
463,42.968750
464,42.968750
465,42.968750
466,42.968750
467,42.968750
468,42.968750
469,42.968750
470,39.062500
471,39.062500
472,39.062500
473,39.062500
474,39.062500
475,39.062500
476,39.062500
477,39.062500
478,35.156250
479,35.156250
480,35.156250
481,35.156250
482,35.156250
483,35.156250
484,35.156250
485,35.156250
486,35.156250
487,31.250000
488,31.250000
489,31.250000
490,31.250000
491,31.250000
492,31.250000
493,31.250000
494,27.343750
495,27.343750
496,27.343750
497,27.343750
498,27.343750
499,27.343750
500,27.343750
501,27.343750
502,27.343750
503,23.437500
504,23.437500
505,23.437500
506,23.437500
507,23.437500
508,23.437500
509,23.437500
510,23.437500
511,19.531250
512,19.531250
513,19.531250
514,19.531250
515,19.531250
516,19.531250
517,19.531250
518,19.531250
519,15.625000
520,15.625000
521,15.625000
522,15.625000
523,15.625000
524,15.625000
525,11.718750
526,11.718750
527,11.718750
528,11.718750
529,11.718750
530,11.718750
531,11.718750
532,7.812500
533,7.812500
534,7.812500
535,7.812500
536,7.812500
537,7.812500
538,7.812500
539,3.906250
540,7.812500
541,3.906250
542,3.906250
543,3.906250
544,3.906250
545,3.906250
546,3.906250
547,3.906250
548,0.000000
549,0.000000
550,0.000000
551,0.000000
552,0.000000
553,0.000000
554,0.000000
555,-3.906250
556,-3.906250
557,-3.906250
558,-3.906250
559,-3.906250
560,-3.906250
561,-3.906250
562,-7.812500
563,-7.812500
564,-7.812500
565,-7.812500
566,-7.812500
567,-7.812500
568,-11.718750
569,-11.718750
570,-11.718750
571,-11.718750
572,-11.718750
573,-11.718750
574,-11.718750
575,-15.625000
576,-15.625000
577,-15.625000
578,-15.625000
579,-15.625000
580,-15.625000
581,-15.625000
582,-19.531250
583,-19.531250
584,-19.531250
585,-19.531250
586,-19.531250
587,-19.531250
588,-23.437500
589,-23.437500
590,-23.437500
591,-23.437500
592,-23.437500
593,-23.437500
594,-23.437500
595,-27.343750
596,-27.343750
597,-27.343750
598,-27.343750
599,-27.343750
600,-27.343750
601,-27.343750
602,-31.250000
603,-31.250000
604,-31.250000
605,-31.250000
606,-31.250000
607,-31.250000
608,-31.250000
609,-35.156250
610,-35.156250
611,-35.156250
612,-35.156250
613,-35.156250
614,-35.156250
615,-39.062500
616,-39.062500
617,-39.062500
618,-39.062500
619,-39.062500
620,-39.062500
621,-39.062500
622,-39.062500
623,-42.968750
624,-42.968750
625,-42.968750
626,-42.968750
627,-42.968750
628,-42.968750
629,-46.875000
630,-46.875000
631,-46.875000
632,-46.875000
633,-46.875000
634,-46.875000
635,-46.875000
636,-46.875000
637,-50.781250
638,-50.781250
639,-50.781250
640,-50.781250
641,-50.781250
642,-54.687500
643,-54.687500
644,-54.687500
645,-54.687500
646,-54.687500
647,-54.687500
648,-54.687500
649,-54.687500
650,-58.593750
651,-58.593750
652,-58.593750
653,-58.593750
654,-58.593750
655,-58.593750
656,-58.593750
657,-62.500000
658,-58.593750
659,-62.500000
660,-62.500000
661,-62.500000
662,-62.500000
663,-62.500000
664,-62.500000
665,-62.500000
666,-66.406250
667,-66.406250
668,-66.406250
669,-66.406250
670,-66.406250
671,-66.406250
672,-66.406250
673,-70.312500
674,-70.312500
675,-70.312500
676,-70.312500
677,-70.312500
678,-70.312500
679,-70.312500
680,-70.312500
681,-70.312500
682,-74.218750
683,-74.218750
684,-74.218750
685,-74.218750
686,-74.218750
687,-74.218750
688,-74.218750
689,-74.218750
690,-74.218750
691,-78.125000
692,-78.125000
693,-78.125000
694,-78.125000
695,-78.125000
696,-78.125000
697,-78.125000
698,-78.125000
699,-78.125000
700,-82.031250
701,-82.031250
702,-82.031250
703,-82.031250
704,-82.031250
705,-82.031250
706,-82.031250
707,-82.031250
708,-82.031250
709,-82.031250
710,-82.031250
711,-85.937500
712,-85.937500
713,-85.937500
714,-85.937500
715,-85.937500
716,-85.937500
717,-85.937500
718,-85.937500
719,-85.937500
720,-85.937500
721,-89.843750
722,-89.843750
723,-89.843750
724,-89.843750
725,-89.843750
726,-89.843750
727,-89.843750
728,-89.843750
729,-89.843750
730,-89.843750
731,-89.843750
732,-93.750000
733,-93.750000
734,-93.750000
735,-93.750000
736,-93.750000
737,-93.750000
738,-93.750000
739,-93.750000
740,-93.750000
741,-93.750000
742,-93.750000
743,-97.656250
744,-97.656250
745,-97.656250
746,-97.656250
747,-97.656250
748,-97.656250
749,-97.656250
750,-97.656250
751,-97.656250
752,-97.656250
753,-97.656250
754,-97.656250
755,-97.656250
756,-97.656250
757,-97.656250
758,-97.656250
759,-101.562500
760,-97.656250
761,-101.562500
762,-101.562500
763,-101.562500
764,-101.562500
765,-101.562500
766,-101.562500
767,-101.562500
768,-101.562500
769,-101.562500
770,-101.562500
771,-101.562500
772,-101.562500
773,-101.562500
774,-101.562500
775,-101.562500
776,-101.562500
777,-101.562500
778,-105.468750
779,-101.562500
780,-101.562500
781,-101.562500
782,-101.562500
783,-101.562500
784,-105.468750
785,-105.468750
786,-105.468750
787,-105.468750
788,-105.468750
789,-105.468750
790,-105.468750
791,-105.468750
792,-105.468750
793,-105.468750
794,-105.468750
795,-105.468750
796,-105.468750
797,-105.468750
798,-105.468750
799,-105.468750
800,-105.468750
801,-105.468750
802,-105.468750
803,-105.468750
804,-105.468750
805,-105.468750
806,-105.468750
807,-105.468750
808,-105.468750
809,-105.468750
810,-105.468750
811,-105.468750
812,-105.468750
813,-105.468750
814,-105.468750
815,-105.468750
816,-105.468750
817,-105.468750
818,-105.468750
819,-105.468750
820,-105.468750
821,-105.468750
822,-105.468750
823,-105.468750
824,-105.468750
825,-105.468750
826,-105.468750
827,-105.468750
828,-105.468750
829,-105.468750
830,-105.468750
831,-105.468750
832,-105.468750
833,-105.468750
834,-105.468750
835,-105.468750
836,-105.468750
837,-105.468750
838,-105.468750
839,-105.468750
840,-105.468750
841,-105.468750
842,-105.468750
843,-105.468750
844,-105.468750
845,-105.468750
846,-105.468750
847,-105.468750
848,-105.468750
849,-105.468750
850,-105.468750
851,-105.468750
852,-105.468750
853,-105.468750
854,-105.468750
855,-105.468750
856,-105.468750
857,-101.562500
858,-101.562500
859,-101.562500
860,-101.562500
861,-101.562500
862,-101.562500
863,-101.562500
864,-101.562500
865,-101.562500
866,-101.562500
867,-101.562500
868,-101.562500
869,-101.562500
870,-101.562500
871,-101.562500
872,-101.562500
873,-101.562500
874,-97.656250
875,-101.562500
876,-97.656250
877,-97.656250
878,-97.656250
879,-97.656250
880,-97.656250
881,-97.656250
882,-97.656250
883,-97.656250
884,-97.656250
885,-97.656250
886,-97.656250
887,-97.656250
888,-97.656250
889,-97.656250
890,-97.656250
891,-97.656250
892,-93.750000
893,-93.750000
894,-93.750000
895,-93.750000
896,-93.750000
897,-93.750000
898,-93.750000
899,-93.750000
900,-93.750000
901,-93.750000
902,-93.750000
903,-93.750000
904,-89.843750
905,-89.843750
906,-89.843750
907,-89.843750
908,-89.843750
909,-89.843750
910,-89.843750
911,-89.843750
912,-89.843750
913,-89.843750
914,-89.843750
915,-89.843750
916,-85.937500
917,-85.937500
918,-85.937500
919,-85.937500
920,-85.937500
921,-85.937500
922,-85.937500
923,-85.937500
924,-85.937500
925,-85.937500
926,-82.031250
927,-82.031250
928,-82.031250
929,-82.031250
930,-82.031250
931,-82.031250
932,-82.031250
933,-82.031250
934,-78.125000
935,-82.031250
936,-78.125000
937,-78.125000
938,-78.125000
939,-78.125000
940,-78.125000
941,-78.125000
942,-78.125000
943,-78.125000
944,-74.218750
945,-74.218750
946,-74.218750
947,-74.218750
948,-74.218750
949,-74.218750
950,-74.218750
951,-74.218750
952,-70.312500
953,-74.218750
954,-70.312500
955,-70.312500
956,-70.312500
957,-70.312500
958,-70.312500
959,-70.312500
960,-70.312500
961,-66.406250
962,-66.406250
963,-66.406250
964,-66.406250
965,-66.406250
966,-66.406250
967,-66.406250
968,-62.500000
969,-62.500000
970,-62.500000
971,-62.500000
972,-62.500000
973,-62.500000
974,-62.500000
975,-62.500000
976,-62.500000
977,-58.593750
978,-58.593750
979,-58.593750
980,-58.593750
981,-58.593750
982,-58.593750
983,-58.593750
984,-58.593750
985,-54.687500
986,-54.687500
987,-54.687500
988,-54.687500
989,-54.687500
990,-54.687500
991,-50.781250
992,-50.781250
993,-50.781250
994,-50.781250
995,-50.781250
996,-50.781250
997,-50.781250
998,-46.875000
999,-46.875000
1000,-46.875000
1001,-46.875000
1002,-46.875000
1003,-46.875000
1004,-46.875000
1005,-42.968750
1006,-42.968750
1007,-42.968750
1008,-42.968750
1009,-42.968750
1010,-42.968750
1011,-42.968750
1012,-39.062500
1013,-39.062500
1014,-39.062500
1015,-39.062500
1016,-39.062500
1017,-39.062500
1018,-39.062500
1019,-35.156250
1020,-35.156250
1021,-35.156250
1022,-35.156250
1023,-35.156250
1024,-35.156250
1025,-35.156250
1026,-31.250000
1027,-31.250000
1028,-31.250000
1029,-31.250000
1030,-31.250000
1031,-31.250000
1032,-31.250000
1033,-27.343750
1034,-27.343750
1035,-27.343750
1036,-27.343750
1037,-27.343750
1038,-27.343750
1039,-27.343750
1040,-23.437500
1041,-23.437500
1042,-23.437500
1043,-23.437500
1044,-23.437500
1045,-23.437500
1046,-19.531250
1047,-19.531250
1048,-19.531250
1049,-19.531250
1050,-19.531250
1051,-19.531250
1052,-19.531250
1053,-15.625000
1054,-15.625000
1055,-15.625000
1056,-15.625000
1057,-15.625000
1058,-15.625000
1059,-11.718750
1060,-11.718750
1061,-11.718750
1062,-11.718750
1063,-11.718750
1064,-11.718750
1065,-11.718750
1066,-7.812500
1067,-7.812500
1068,-7.812500
1069,-7.812500
1070,-7.812500
1071,-7.812500
1072,-7.812500
1073,-3.906250
1074,-3.906250
1075,-3.906250
1076,-3.906250
1077,-3.906250
1078,-3.906250
1079,-3.906250
1080,0.000000
1081,0.000000
1082,0.000000
1083,0.000000
1084,0.000000
1085,0.000000
1086,0.000000
1087,3.906250
1088,3.906250
1089,3.906250
1090,3.906250
1091,3.906250
1092,3.906250
1093,3.906250
1094,7.812500
1095,7.812500
1096,7.812500
1097,7.812500
1098,7.812500
1099,7.812500
1100,11.718750
1101,11.718750
1102,11.718750
1103,11.718750
1104,11.718750
1105,11.718750
1106,11.718750
1107,15.625000
1108,15.625000
1109,15.625000
1110,15.625000
1111,15.625000
1112,15.625000
1113,15.625000
1114,15.625000
1115,19.531250
1116,19.531250
1117,19.531250
1118,19.531250
1119,19.531250
1120,19.531250
1121,19.531250
1122,19.531250
1123,23.437500
1124,23.437500
1125,23.437500
1126,23.437500
1127,23.437500
1128,23.437500
1129,23.437500
1130,27.343750
1131,23.437500
1132,27.343750
1133,27.343750
1134,27.343750
1135,27.343750
1136,27.343750
1137,27.343750
1138,27.343750
1139,27.343750
1140,31.250000
1141,31.250000
1142,31.250000
1143,31.250000
1144,31.250000
1145,31.250000
1146,31.250000
1147,31.250000
1148,35.156250
1149,35.156250
1150,35.156250
1151,35.156250
1152,35.156250
1153,35.156250
1154,35.156250
1155,35.156250
1156,39.062500
1157,39.062500
1158,39.062500
1159,39.062500
1160,39.062500
1161,39.062500
1162,39.062500
1163,39.062500
1164,42.968750
1165,42.968750
1166,42.968750
1167,42.968750
1168,42.968750
1169,42.968750
1170,42.968750
1171,42.968750
1172,42.968750
1173,42.968750
1174,46.875000
1175,46.875000
1176,46.875000
1177,46.875000
1178,46.875000
1179,46.875000
1180,46.875000
1181,46.875000
1182,50.781250
1183,50.781250
1184,46.875000
1185,50.781250
1186,50.781250
1187,50.781250
1188,50.781250
1189,50.781250
1190,50.781250
1191,50.781250
1192,50.781250
1193,50.781250
1194,54.687500
1195,54.687500
1196,54.687500
1197,54.687500
1198,54.687500
1199,54.687500
1200,54.687500
1201,54.687500
1202,54.687500
1203,54.687500
1204,54.687500
1205,58.593750
1206,58.593750
1207,58.593750
1208,58.593750
1209,58.593750
1210,58.593750
1211,58.593750
1212,58.593750
1213,58.593750
1214,58.593750
1215,58.593750
1216,58.593750
1217,58.593750
1218,62.500000
1219,62.500000
1220,62.500000
1221,62.500000
1222,62.500000
1223,62.500000
1224,62.500000
1225,62.500000
1226,62.500000
1227,62.500000
1228,62.500000
1229,62.500000
1230,62.500000
1231,66.406250
1232,66.406250
1233,66.406250
1234,66.406250
1235,66.406250
1236,66.406250
1237,66.406250
1238,66.406250
1239,66.406250
1240,66.406250
1241,66.406250
1242,66.406250
1243,66.406250
1244,66.406250
1245,66.406250
1246,66.406250
1247,66.406250
1248,70.312500
1249,66.406250
1250,70.312500
1251,70.312500
1252,70.312500
1253,70.312500
1254,70.312500
1255,70.312500
1256,70.312500
1257,70.312500
1258,70.312500
1259,70.312500
1260,70.312500
1261,70.312500
1262,70.312500
1263,70.312500
1264,70.312500
1265,70.312500
1266,70.312500
1267,70.312500
1268,70.312500
1269,70.312500
1270,70.312500
1271,70.312500
1272,70.312500
1273,70.312500
1274,70.312500
1275,70.312500
1276,74.218750
1277,70.312500
1278,70.312500
1279,74.218750
1280,74.218750
1281,74.218750
1282,74.218750
1283,74.218750
1284,74.218750
1285,74.218750
1286,74.218750
1287,74.218750
1288,74.218750
1289,74.218750
1290,74.218750
1291,74.218750
1292,74.218750
1293,74.218750
1294,74.218750
1295,74.218750
1296,74.218750
1297,74.218750
1298,74.218750
1299,74.218750
1300,74.218750
1301,74.218750
1302,74.218750
1303,74.218750
1304,74.218750
1305,74.218750
1306,74.218750
1307,74.218750
1308,74.218750
1309,74.218750
1310,74.218750
1311,74.218750
1312,74.218750
1313,74.218750
1314,74.218750
1315,74.218750
1316,74.218750
1317,74.218750
1318,74.218750
1319,74.218750
1320,74.218750
1321,74.218750
1322,74.218750
1323,74.218750
1324,74.218750
1325,74.218750
1326,74.218750
1327,74.218750
1328,74.218750
1329,74.218750
1330,74.218750
1331,74.218750
1332,74.218750
1333,74.218750
1334,74.218750
1335,74.218750
1336,74.218750
1337,74.218750
1338,74.218750
1339,74.218750
1340,74.218750
1341,74.218750
1342,74.218750
1343,74.218750
1344,74.218750
1345,74.218750
1346,74.218750
1347,74.218750
1348,74.218750
1349,70.312500
1350,70.312500
1351,70.312500
1352,70.312500
1353,70.312500
1354,70.312500
1355,70.312500
1356,70.312500
1357,70.312500
1358,70.312500
1359,70.312500
1360,70.312500
1361,70.312500
1362,70.312500
1363,70.312500
1364,70.312500
1365,70.312500
1366,70.312500
1367,70.312500
1368,70.312500
1369,70.312500
1370,70.312500
1371,70.312500
1372,70.312500
1373,70.312500
1374,70.312500
1375,66.406250
1376,66.406250
1377,66.406250
1378,66.406250
1379,66.406250
1380,66.406250
1381,66.406250
1382,66.406250
1383,66.406250
1384,66.406250
1385,66.406250
1386,66.406250
1387,66.406250
1388,66.406250
1389,66.406250
1390,66.406250
1391,62.500000
1392,62.500000
1393,62.500000
1394,62.500000
1395,62.500000
1396,62.500000
1397,62.500000
1398,62.500000
1399,62.500000
1400,62.500000
1401,62.500000
1402,62.500000
1403,62.500000
1404,62.500000
1405,62.500000
1406,58.593750
1407,58.593750
1408,58.593750
1409,58.593750
1410,58.593750
1411,58.593750
1412,58.593750
1413,58.593750
1414,58.593750
1415,58.593750
1416,58.593750
1417,58.593750
1418,58.593750
1419,54.687500
1420,54.687500
1421,54.687500
1422,54.687500
1423,54.687500
1424,54.687500
1425,54.687500
1426,54.687500
1427,54.687500
1428,54.687500
1429,54.687500
1430,50.781250
1431,50.781250
1432,50.781250
1433,50.781250
1434,50.781250
1435,50.781250
1436,50.781250
1437,50.781250
1438,50.781250
1439,50.781250
1440,50.781250
1441,50.781250
1442,46.875000
1443,46.875000
1444,46.875000
1445,46.875000
1446,46.875000
1447,46.875000
1448,46.875000
1449,46.875000
1450,46.875000
1451,42.968750
1452,42.968750
1453,42.968750
1454,42.968750
1455,42.968750
1456,42.968750
1457,42.968750
1458,42.968750
1459,39.062500
1460,39.062500
1461,39.062500
1462,39.062500
1463,39.062500
1464,39.062500
1465,39.062500
1466,39.062500
1467,39.062500
1468,39.062500
1469,35.156250
1470,39.062500
1471,35.156250
1472,35.156250
1473,35.156250
1474,35.156250
1475,35.156250
1476,35.156250
1477,35.156250
1478,35.156250
1479,31.250000
1480,31.250000
1481,31.250000
1482,31.250000
1483,31.250000
1484,31.250000
1485,31.250000
1486,27.343750
1487,27.343750
1488,27.343750
1489,27.343750
1490,27.343750
1491,27.343750
1492,27.343750
1493,27.343750
1494,23.437500
1495,23.437500
1496,23.437500
1497,23.437500
1498,23.437500
1499,23.437500
1500,23.437500
1501,19.531250
1502,19.531250
1503,19.531250
1504,19.531250
1505,19.531250
1506,19.531250
1507,19.531250
1508,19.531250
1509,15.625000
1510,15.625000
1511,15.625000
1512,15.625000
1513,11.718750
1514,15.625000
1515,11.718750
1516,15.625000
1517,11.718750
1518,11.718750
1519,11.718750
1520,11.718750
1521,11.718750
1522,11.718750
1523,11.718750
1524,7.812500
1525,7.812500
1526,7.812500
1527,7.812500
1528,7.812500
1529,7.812500
1530,3.906250
1531,3.906250
1532,3.906250
1533,3.906250
1534,3.906250
1535,3.906250
1536,3.906250
1537,0.000000
1538,0.000000
1539,0.000000
1540,0.000000
1541,0.000000
1542,0.000000
1543,0.000000
1544,0.000000
1545,-3.906250
1546,-3.906250
1547,-3.906250
1548,-3.906250
1549,-3.906250
1550,-3.906250
1551,-7.812500
1552,-7.812500
1553,-7.812500
1554,-7.812500
1555,-7.812500
1556,-7.812500
1557,-7.812500
1558,-7.812500
1559,-11.718750
1560,-11.718750
1561,-11.718750
1562,-11.718750
1563,-11.718750
1564,-11.718750
1565,-15.625000
1566,-15.625000
1567,-15.625000
1568,-15.625000
1569,-15.625000
1570,-15.625000
1571,-15.625000
1572,-15.625000
1573,-19.531250
1574,-19.531250
1575,-19.531250
1576,-19.531250
1577,-19.531250
1578,-19.531250
1579,-19.531250
1580,-23.437500
1581,-23.437500
1582,-23.437500
1583,-23.437500
1584,-23.437500
1585,-23.437500
1586,-27.343750
1587,-27.343750
1588,-27.343750
1589,-27.343750
1590,-27.343750
1591,-27.343750
1592,-27.343750
1593,-31.250000
1594,-31.250000
1595,-31.250000
1596,-31.250000
1597,-31.250000
1598,-31.250000
1599,-35.156250
1600,-35.156250
1601,-35.156250
1602,-35.156250
1603,-35.156250
1604,-35.156250
1605,-39.062500
1606,-35.156250
1607,-39.062500
1608,-39.062500
1609,-39.062500
1610,-39.062500
1611,-39.062500
1612,-39.062500
1613,-42.968750
1614,-42.968750
1615,-42.968750
1616,-42.968750
1617,-42.968750
1618,-42.968750
1619,-42.968750
1620,-46.875000
1621,-46.875000
1622,-46.875000
1623,-46.875000
1624,-46.875000
1625,-46.875000
1626,-46.875000
1627,-46.875000
1628,-46.875000
1629,-50.781250
1630,-50.781250
1631,-50.781250
1632,-50.781250
1633,-54.687500
1634,-54.687500
1635,-54.687500
1636,-54.687500
1637,-54.687500
1638,-54.687500
1639,-54.687500
1640,-54.687500
1641,-54.687500
1642,-58.593750
1643,-58.593750
1644,-58.593750
1645,-58.593750
1646,-58.593750
1647,-58.593750
1648,-58.593750
1649,-62.500000
1650,-62.500000
1651,-62.500000
1652,-62.500000
1653,-62.500000
1654,-62.500000
1655,-62.500000
1656,-62.500000
1657,-66.406250
1658,-66.406250
1659,-66.406250
1660,-66.406250
1661,-66.406250
1662,-66.406250
1663,-66.406250
1664,-70.312500
1665,-70.312500
1666,-70.312500
1667,-70.312500
1668,-70.312500
1669,-70.312500
1670,-70.312500
1671,-70.312500
1672,-74.218750
1673,-70.312500
1674,-70.312500
1675,-74.218750
1676,-74.218750
1677,-74.218750
1678,-74.218750
1679,-74.218750
1680,-74.218750
1681,-74.218750
1682,-78.125000
1683,-78.125000
1684,-78.125000
1685,-78.125000
1686,-78.125000
1687,-78.125000
1688,-78.125000
1689,-78.125000
1690,-78.125000
1691,-82.031250
1692,-82.031250
1693,-82.031250
1694,-82.031250
1695,-82.031250
1696,-82.031250
1697,-82.031250
1698,-82.031250
1699,-82.031250
1700,-82.031250
1701,-82.031250
1702,-85.937500
1703,-85.937500
1704,-85.937500
1705,-85.937500
1706,-85.937500
1707,-85.937500
1708,-85.937500
1709,-85.937500
1710,-89.843750
1711,-85.937500
1712,-89.843750
1713,-89.843750
1714,-89.843750
1715,-89.843750
1716,-89.843750
1717,-89.843750
1718,-89.843750
1719,-89.843750
1720,-89.843750
1721,-89.843750
1722,-89.843750
1723,-93.750000
1724,-93.750000
1725,-93.750000
1726,-93.750000
1727,-93.750000
1728,-93.750000
1729,-93.750000
1730,-93.750000
1731,-93.750000
1732,-93.750000
1733,-93.750000
1734,-93.750000
1735,-93.750000
1736,-97.656250
1737,-97.656250
1738,-97.656250
1739,-97.656250
1740,-97.656250
1741,-97.656250
1742,-97.656250
1743,-97.656250
1744,-97.656250
1745,-97.656250
1746,-97.656250
1747,-97.656250
1748,-101.562500
1749,-97.656250
1750,-97.656250
1751,-97.656250
1752,-101.562500
1753,-101.562500
1754,-101.562500
1755,-101.562500
1756,-101.562500
1757,-101.562500
1758,-101.562500
1759,-101.562500
1760,-101.562500
1761,-101.562500
1762,-101.562500
1763,-101.562500
1764,-101.562500
1765,-101.562500
1766,-101.562500
1767,-101.562500
1768,-101.562500
1769,-105.468750
1770,-101.562500
1771,-105.468750
1772,-105.468750
1773,-105.468750
1774,-105.468750
1775,-105.468750
1776,-105.468750
1777,-105.468750
1778,-105.468750
1779,-105.468750
1780,-105.468750
1781,-105.468750
1782,-105.468750
1783,-105.468750
1784,-105.468750
1785,-105.468750
1786,-105.468750
1787,-105.468750
1788,-105.468750
1789,-105.468750
1790,-105.468750
1791,-105.468750
1792,-105.468750
1793,-105.468750
1794,-105.468750
1795,-105.468750
1796,-105.468750
1797,-105.468750
1798,-105.468750
1799,-105.468750
1800,-105.468750
1801,-105.468750
1802,-105.468750
1803,-105.468750
1804,-105.468750
1805,-105.468750
1806,-105.468750
1807,-105.468750
1808,-105.468750
1809,-105.468750
1810,-105.468750
1811,-105.468750
1812,-105.468750
1813,-105.468750
1814,-105.468750
1815,-105.468750
1816,-105.468750
1817,-105.468750
1818,-105.468750
1819,-105.468750
1820,-105.468750
1821,-105.468750
1822,-105.468750
1823,-105.468750
1824,-105.468750
1825,-105.468750
1826,-105.468750
1827,-105.468750
1828,-105.468750
1829,-105.468750
1830,-105.468750
1831,-105.468750
1832,-105.468750
1833,-105.468750
1834,-105.468750
1835,-105.468750
1836,-105.468750
1837,-105.468750
1838,-105.468750
1839,-105.468750
1840,-105.468750
1841,-105.468750
1842,-105.468750
1843,-105.468750
1844,-105.468750
1845,-105.468750
1846,-101.562500
1847,-101.562500
1848,-101.562500
1849,-101.562500
1850,-101.562500
1851,-101.562500
1852,-101.562500
1853,-101.562500
1854,-101.562500
1855,-101.562500
1856,-101.562500
1857,-101.562500
1858,-101.562500
1859,-101.562500
1860,-101.562500
1861,-101.562500
1862,-101.562500
1863,-101.562500
1864,-101.562500
1865,-101.562500
1866,-97.656250
1867,-97.656250
1868,-101.562500
1869,-97.656250
1870,-97.656250
1871,-97.656250
1872,-97.656250
1873,-97.656250
1874,-97.656250
1875,-97.656250
1876,-97.656250
1877,-97.656250
1878,-97.656250
1879,-97.656250
1880,-97.656250
1881,-93.750000
1882,-93.750000
1883,-97.656250
1884,-93.750000
1885,-93.750000
1886,-93.750000
1887,-93.750000
1888,-93.750000
1889,-93.750000
1890,-93.750000
1891,-93.750000
1892,-93.750000
1893,-93.750000
1894,-93.750000
1895,-93.750000
1896,-89.843750
1897,-89.843750
1898,-89.843750
1899,-89.843750
1900,-89.843750
1901,-89.843750
1902,-89.843750
1903,-89.843750
1904,-89.843750
1905,-89.843750
1906,-85.937500
1907,-85.937500
1908,-85.937500
1909,-85.937500
1910,-85.937500
1911,-85.937500
1912,-85.937500
1913,-85.937500
1914,-85.937500
1915,-85.937500
1916,-82.031250
1917,-82.031250
1918,-82.031250
1919,-82.031250
1920,-82.031250
1921,-82.031250
1922,-82.031250
1923,-82.031250
1924,-78.125000
1925,-82.031250
1926,-78.125000
1927,-78.125000
1928,-78.125000
1929,-78.125000
1930,-78.125000
1931,-78.125000
1932,-78.125000
1933,-78.125000
1934,-74.218750
1935,-74.218750
1936,-74.218750
1937,-74.218750
1938,-74.218750
1939,-74.218750
1940,-74.218750
1941,-74.218750
1942,-74.218750
1943,-74.218750
1944,-70.312500
1945,-70.312500
1946,-70.312500
1947,-70.312500
1948,-70.312500
1949,-70.312500
1950,-66.406250
1951,-70.312500
1952,-66.406250
1953,-66.406250
1954,-66.406250
1955,-66.406250
1956,-66.406250
1957,-66.406250
1958,-66.406250
1959,-62.500000
1960,-62.500000
1961,-62.500000
1962,-62.500000
1963,-62.500000
1964,-62.500000
1965,-62.500000
1966,-58.593750
1967,-62.500000
1968,-58.593750
1969,-58.593750
1970,-58.593750
1971,-58.593750
1972,-58.593750
1973,-58.593750
1974,-54.687500
1975,-54.687500
1976,-54.687500
1977,-54.687500
1978,-54.687500
1979,-54.687500
1980,-54.687500
1981,-50.781250
1982,-50.781250
1983,-50.781250
1984,-50.781250
1985,-50.781250
1986,-50.781250
1987,-50.781250
1988,-50.781250
1989,-46.875000
1990,-46.875000
1991,-46.875000
1992,-46.875000
1993,-46.875000
1994,-46.875000
1995,-46.875000
1996,-42.968750
1997,-42.968750
1998,-42.968750
1999,-42.968750
2000,-42.968750
2001,-42.968750
2002,-42.968750
2003,-39.062500
2004,-39.062500
2005,-39.062500
2006,-39.062500
2007,-39.062500
2008,-39.062500
2009,-35.156250
2010,-35.156250
2011,-35.156250
2012,-35.156250
2013,-35.156250
2014,-35.156250
2015,-35.156250
2016,-35.156250
2017,-31.250000
2018,-31.250000
2019,-31.250000
2020,-31.250000
2021,-31.250000
2022,-31.250000
2023,-31.250000
2024,-27.343750
2025,-27.343750
2026,-27.343750
2027,-27.343750
2028,-27.343750
2029,-27.343750
2030,-23.437500
2031,-23.437500
2032,-23.437500
2033,-23.437500
2034,-23.437500
2035,-23.437500
2036,-19.531250
2037,-19.531250
2038,-19.531250
2039,-19.531250
2040,-19.531250
2041,-19.531250
2042,-19.531250
2043,-15.625000
2044,-15.625000
2045,-15.625000
2046,-15.625000
2047,-15.625000
2048,-15.625000
2049,-15.625000
2050,-11.718750
2051,-11.718750
2052,-11.718750
2053,-11.718750
2054,-11.718750
2055,-11.718750
2056,-11.718750
2057,-7.812500
2058,-7.812500
2059,-7.812500
2060,-7.812500
2061,-7.812500
2062,-7.812500
2063,-3.906250
2064,-3.906250
2065,-3.906250
2066,-3.906250
2067,-3.906250
2068,-3.906250
2069,-3.906250
2070,0.000000
2071,0.000000
2072,0.000000
2073,0.000000
2074,0.000000
2075,0.000000
2076,0.000000
2077,0.000000
2078,3.906250
2079,3.906250
2080,3.906250
2081,3.906250
2082,3.906250
2083,3.906250
2084,7.812500
2085,7.812500
2086,7.812500
2087,7.812500
2088,7.812500
2089,7.812500
2090,11.718750
2091,11.718750
2092,11.718750
2093,11.718750
2094,11.718750
2095,11.718750
2096,11.718750
2097,11.718750
2098,11.718750
2099,15.625000
2100,15.625000
2101,15.625000
2102,15.625000
2103,15.625000
2104,15.625000
2105,19.531250
2106,19.531250
2107,19.531250
2108,19.531250
2109,19.531250
2110,19.531250
2111,19.531250
2112,19.531250
2113,23.437500
2114,23.437500
2115,23.437500
2116,23.437500
2117,23.437500
2118,23.437500
2119,23.437500
2120,27.343750
2121,27.343750
2122,27.343750
2123,27.343750
2124,27.343750
2125,27.343750
2126,27.343750
2127,27.343750
2128,31.250000
2129,31.250000
2130,31.250000
2131,31.250000
2132,31.250000
2133,31.250000
2134,31.250000
2135,31.250000
2136,35.156250
2137,35.156250
2138,35.156250
2139,35.156250
2140,35.156250
2141,35.156250
2142,35.156250
2143,35.156250
2144,39.062500
2145,35.156250
2146,39.062500
2147,39.062500
2148,39.062500
2149,39.062500
2150,39.062500
2151,39.062500
2152,39.062500
2153,42.968750
2154,42.968750
2155,42.968750
2156,42.968750
2157,42.968750
2158,42.968750
2159,42.968750
2160,42.968750
2161,46.875000
2162,46.875000
2163,46.875000
2164,46.875000
2165,46.875000
2166,46.875000
2167,46.875000
2168,46.875000
2169,46.875000
2170,46.875000
2171,46.875000
2172,46.875000
2173,46.875000
2174,50.781250
2175,50.781250
2176,50.781250
2177,50.781250
2178,50.781250
2179,50.781250
2180,50.781250
2181,50.781250
2182,54.687500
2183,50.781250
2184,54.687500
2185,54.687500
2186,54.687500
2187,54.687500
2188,54.687500
2189,54.687500
2190,54.687500
2191,54.687500
2192,54.687500
2193,54.687500
2194,54.687500
2195,58.593750
2196,58.593750
2197,58.593750
2198,58.593750
2199,58.593750
2200,58.593750
2201,58.593750
2202,58.593750
2203,58.593750
2204,58.593750
2205,58.593750
2206,58.593750
2207,62.500000
2208,62.500000
2209,62.500000
2210,62.500000
2211,62.500000
2212,62.500000
2213,62.500000
2214,62.500000
2215,62.500000
2216,62.500000
2217,62.500000
2218,62.500000
2219,62.500000
2220,66.406250
2221,62.500000
2222,66.406250
2223,66.406250
2224,66.406250
2225,66.406250
2226,66.406250
2227,66.406250
2228,66.406250
2229,66.406250
2230,66.406250
2231,66.406250
2232,66.406250
2233,66.406250
2234,66.406250
2235,66.406250
2236,66.406250
2237,70.312500
2238,70.312500
2239,70.312500
2240,66.406250
2241,70.312500
2242,70.312500
2243,70.312500
2244,70.312500
2245,70.312500
2246,70.312500
2247,70.312500
2248,70.312500
2249,70.312500
2250,70.312500
2251,70.312500
2252,70.312500
2253,70.312500
2254,70.312500
2255,70.312500
2256,70.312500
2257,74.218750
2258,70.312500
2259,70.312500
2260,70.312500
2261,70.312500
2262,70.312500
2263,70.312500
2264,70.312500
2265,74.218750
2266,74.218750
2267,74.218750
2268,74.218750
2269,74.218750
2270,74.218750
2271,74.218750
2272,74.218750
2273,74.218750
2274,74.218750
2275,74.218750
2276,74.218750
2277,74.218750
2278,74.218750
2279,74.218750
2280,74.218750
2281,74.218750
2282,74.218750
2283,74.218750
2284,74.218750
2285,74.218750
2286,74.218750
2287,74.218750
2288,74.218750
2289,74.218750
2290,74.218750
2291,74.218750
2292,74.218750
2293,74.218750
2294,74.218750
2295,74.218750
2296,74.218750
2297,74.218750
2298,74.218750
2299,74.218750
2300,74.218750
2301,74.218750
2302,74.218750
2303,74.218750
2304,74.218750
2305,74.218750
2306,74.218750
2307,74.218750
2308,74.218750
2309,74.218750
2310,74.218750
2311,74.218750
2312,74.218750
2313,74.218750
2314,74.218750
2315,74.218750
2316,74.218750
2317,74.218750
2318,74.218750
2319,74.218750
2320,74.218750
2321,74.218750
2322,74.218750
2323,74.218750
2324,74.218750
2325,74.218750
2326,74.218750
2327,74.218750
2328,74.218750
2329,74.218750
2330,74.218750
2331,74.218750
2332,74.218750
2333,74.218750
2334,74.218750
2335,74.218750
2336,74.218750
2337,74.218750
2338,74.218750
2339,74.218750
2340,70.312500
2341,70.312500
2342,70.312500
2343,70.312500
2344,70.312500
2345,70.312500
2346,70.312500
2347,70.312500
2348,70.312500
2349,70.312500
2350,70.312500
2351,70.312500
2352,70.312500
2353,70.312500
2354,70.312500
2355,70.312500
2356,70.312500
2357,70.312500
2358,70.312500
2359,70.312500
2360,70.312500
2361,66.406250
2362,70.312500
2363,70.312500
2364,66.406250
2365,66.406250
2366,66.406250
2367,66.406250
2368,66.406250
2369,66.406250
2370,66.406250
2371,66.406250
2372,66.406250
2373,66.406250
2374,66.406250
2375,66.406250
2376,66.406250
2377,66.406250
2378,66.406250
2379,66.406250
2380,66.406250
2381,66.406250
2382,62.500000
2383,62.500000
2384,62.500000
2385,62.500000
2386,62.500000
2387,62.500000
2388,62.500000
2389,62.500000
2390,62.500000
2391,62.500000
2392,62.500000
2393,62.500000
2394,62.500000
2395,62.500000
2396,62.500000
2397,62.500000
2398,62.500000
2399,58.593750
2400,58.593750
2401,58.593750
2402,58.593750
2403,58.593750
2404,58.593750
2405,58.593750
2406,58.593750
2407,58.593750
2408,54.687500
2409,54.687500
2410,54.687500
2411,54.687500
2412,54.687500
2413,54.687500
2414,54.687500
2415,54.687500
2416,54.687500
2417,54.687500
2418,54.687500
2419,54.687500
2420,54.687500
2421,50.781250
2422,50.781250
2423,50.781250
2424,50.781250
2425,50.781250
2426,50.781250
2427,50.781250
2428,50.781250
2429,50.781250
2430,46.875000
2431,46.875000
2432,46.875000
2433,46.875000
2434,46.875000
2435,46.875000
2436,46.875000
2437,46.875000
2438,46.875000
2439,46.875000
2440,42.968750
2441,42.968750
2442,42.968750
2443,42.968750
2444,42.968750
2445,42.968750
2446,42.968750
2447,42.968750
2448,42.968750
2449,42.968750
2450,39.062500
2451,39.062500
2452,39.062500
2453,39.062500
2454,39.062500
2455,39.062500
2456,39.062500
2457,39.062500
2458,39.062500
2459,35.156250
2460,39.062500
2461,35.156250
2462,35.156250
2463,35.156250
2464,35.156250
2465,35.156250
2466,35.156250
2467,35.156250
2468,31.250000
2469,31.250000
2470,31.250000
2471,31.250000
2472,31.250000
2473,31.250000
2474,31.250000
2475,31.250000
2476,27.343750
2477,27.343750
2478,27.343750
2479,27.343750
2480,27.343750
2481,27.343750
2482,27.343750
2483,27.343750
2484,27.343750
2485,23.437500
2486,23.437500
2487,23.437500
2488,23.437500
2489,23.437500
2490,23.437500
2491,19.531250
2492,19.531250
2493,19.531250
2494,19.531250
2495,19.531250
2496,19.531250
2497,19.531250
2498,19.531250
2499,15.625000
2500,15.625000
2501,15.625000
2502,15.625000
2503,15.625000
2504,15.625000
2505,15.625000
2506,15.625000
2507,15.625000
2508,11.718750
2509,11.718750
2510,11.718750
2511,11.718750
2512,11.718750
2513,11.718750
2514,7.812500
2515,7.812500
2516,7.812500
2517,7.812500
2518,7.812500
2519,7.812500
2520,7.812500
2521,3.906250
2522,3.906250
2523,3.906250
2524,3.906250
2525,3.906250
2526,3.906250
2527,3.906250
2528,0.000000
2529,0.000000
2530,0.000000
2531,0.000000
2532,0.000000
2533,0.000000
2534,0.000000
2535,-3.906250
2536,-3.906250
2537,-3.906250
2538,-3.906250
2539,-3.906250
2540,-3.906250
2541,-3.906250
2542,-3.906250
2543,-7.812500
2544,-7.812500
2545,-7.812500
2546,-7.812500
2547,-7.812500
2548,-7.812500
2549,-11.718750
2550,-11.718750
2551,-11.718750
2552,-11.718750
2553,-11.718750
2554,-11.718750
2555,-15.625000
2556,-15.625000
2557,-15.625000
2558,-15.625000
2559,-15.625000
2560,-15.625000
2561,-15.625000
2562,-15.625000
2563,-19.531250
2564,-19.531250
2565,-19.531250
2566,-19.531250
2567,-19.531250
2568,-23.437500
2569,-23.437500
2570,-23.437500
2571,-23.437500
2572,-23.437500
2573,-23.437500
2574,-23.437500
2575,-23.437500
2576,-27.343750
2577,-27.343750
2578,-27.343750
2579,-27.343750
2580,-27.343750
2581,-27.343750
2582,-31.250000
2583,-31.250000
2584,-31.250000
2585,-31.250000
2586,-31.250000
2587,-31.250000
2588,-31.250000
2589,-31.250000
2590,-35.156250
2591,-35.156250
2592,-35.156250
2593,-35.156250
2594,-35.156250
2595,-35.156250
2596,-35.156250
2597,-39.062500
2598,-39.062500
2599,-39.062500
2600,-39.062500
2601,-39.062500
2602,-39.062500
2603,-42.968750
2604,-42.968750
2605,-42.968750
2606,-42.968750
2607,-42.968750
2608,-42.968750
2609,-42.968750
2610,-42.968750
2611,-46.875000
2612,-46.875000
2613,-46.875000
2614,-46.875000
2615,-46.875000
2616,-46.875000
2617,-50.781250
2618,-50.781250
2619,-50.781250
2620,-50.781250
2621,-50.781250
2622,-50.781250
2623,-50.781250
2624,-54.687500
2625,-54.687500
2626,-54.687500
2627,-54.687500
2628,-54.687500
2629,-54.687500
2630,-54.687500
2631,-54.687500
2632,-58.593750
2633,-58.593750
2634,-58.593750
2635,-58.593750
2636,-58.593750
2637,-58.593750
2638,-58.593750
2639,-62.500000
2640,-62.500000
2641,-62.500000
2642,-62.500000
2643,-62.500000
2644,-62.500000
2645,-62.500000
2646,-62.500000
2647,-66.406250
2648,-66.406250
2649,-66.406250
2650,-66.406250
2651,-66.406250
2652,-66.406250
2653,-66.406250
2654,-70.312500
2655,-66.406250
2656,-70.312500
2657,-70.312500
2658,-70.312500
2659,-70.312500
2660,-70.312500
2661,-70.312500
2662,-70.312500
2663,-74.218750
2664,-70.312500
2665,-74.218750
2666,-74.218750
2667,-74.218750
2668,-74.218750
2669,-74.218750
2670,-74.218750
2671,-78.125000
2672,-74.218750
2673,-78.125000
2674,-78.125000
2675,-78.125000
2676,-78.125000
2677,-78.125000
2678,-78.125000
2679,-78.125000
2680,-82.031250
2681,-82.031250
2682,-82.031250
2683,-82.031250
2684,-82.031250
2685,-82.031250
2686,-82.031250
2687,-82.031250
2688,-82.031250
2689,-85.937500
2690,-82.031250
2691,-85.937500
2692,-85.937500
2693,-85.937500
2694,-85.937500
2695,-85.937500
2696,-85.937500
2697,-85.937500
2698,-85.937500
2699,-89.843750
2700,-89.843750
2701,-89.843750
2702,-89.843750
2703,-89.843750
2704,-89.843750
2705,-89.843750
2706,-89.843750
2707,-89.843750
2708,-89.843750
2709,-89.843750
2710,-93.750000
2711,-89.843750
2712,-93.750000
2713,-93.750000
2714,-93.750000
2715,-93.750000
2716,-93.750000
2717,-93.750000
2718,-93.750000
2719,-93.750000
2720,-93.750000
2721,-93.750000
2722,-93.750000
2723,-93.750000
2724,-93.750000
2725,-97.656250
2726,-97.656250
2727,-97.656250
2728,-97.656250
2729,-97.656250
2730,-97.656250
2731,-97.656250
2732,-97.656250
2733,-97.656250
2734,-97.656250
2735,-97.656250
2736,-97.656250
2737,-97.656250
2738,-97.656250
2739,-97.656250
2740,-97.656250
2741,-101.562500
2742,-101.562500
2743,-101.562500
2744,-101.562500
2745,-101.562500
2746,-101.562500
2747,-101.562500
2748,-101.562500
2749,-101.562500
2750,-101.562500
2751,-101.562500
2752,-101.562500
2753,-101.562500
2754,-101.562500
2755,-101.562500
2756,-101.562500
2757,-101.562500
2758,-101.562500
2759,-101.562500
2760,-101.562500
2761,-101.562500
2762,-105.468750
2763,-105.468750
2764,-105.468750
2765,-105.468750
2766,-105.468750
2767,-105.468750
2768,-105.468750
2769,-105.468750
2770,-105.468750
2771,-105.468750
2772,-105.468750
2773,-105.468750
2774,-105.468750
2775,-105.468750
2776,-105.468750
2777,-105.468750
2778,-105.468750
2779,-105.468750
2780,-105.468750
2781,-105.468750
2782,-105.468750
2783,-105.468750
2784,-105.468750
2785,-105.468750
2786,-105.468750
2787,-105.468750
2788,-105.468750
2789,-105.468750
2790,-105.468750
2791,-105.468750
2792,-105.468750
2793,-105.468750
2794,-105.468750
2795,-105.468750
2796,-105.468750
2797,-105.468750
2798,-105.468750
2799,-105.468750
2800,-105.468750
2801,-105.468750
2802,-105.468750
2803,-105.468750
2804,-105.468750
2805,-105.468750
2806,-105.468750
2807,-105.468750
2808,-105.468750
2809,-105.468750
2810,-105.468750
2811,-105.468750
2812,-105.468750
2813,-105.468750
2814,-105.468750
2815,-105.468750
2816,-105.468750
2817,-105.468750
2818,-105.468750
2819,-105.468750
2820,-105.468750
2821,-105.468750
2822,-105.468750
2823,-105.468750
2824,-105.468750
2825,-105.468750
2826,-105.468750
2827,-105.468750
2828,-105.468750
2829,-105.468750
2830,-105.468750
2831,-105.468750
2832,-105.468750
2833,-105.468750
2834,-105.468750
2835,-101.562500
2836,-105.468750
2837,-105.468750
2838,-105.468750
2839,-101.562500
2840,-101.562500
2841,-101.562500
2842,-101.562500
2843,-101.562500
2844,-101.562500
2845,-101.562500
2846,-101.562500
2847,-101.562500
2848,-101.562500
2849,-101.562500
2850,-101.562500
2851,-101.562500
2852,-101.562500
2853,-101.562500
2854,-101.562500
2855,-101.562500
2856,-97.656250
2857,-97.656250
2858,-97.656250
2859,-97.656250
2860,-97.656250
2861,-97.656250
2862,-97.656250
2863,-97.656250
2864,-97.656250
2865,-97.656250
2866,-97.656250
2867,-97.656250
2868,-97.656250
2869,-97.656250
2870,-93.750000
2871,-97.656250
2872,-93.750000
2873,-93.750000
2874,-93.750000
2875,-93.750000
2876,-93.750000
2877,-93.750000
2878,-93.750000
2879,-93.750000
2880,-93.750000
2881,-93.750000
2882,-93.750000
2883,-93.750000
2884,-89.843750
2885,-93.750000
2886,-89.843750
2887,-89.843750
2888,-89.843750
2889,-89.843750
2890,-89.843750
2891,-89.843750
2892,-89.843750
2893,-89.843750
2894,-85.937500
2895,-85.937500
2896,-85.937500
2897,-85.937500
2898,-85.937500
2899,-85.937500
2900,-85.937500
2901,-85.937500
2902,-85.937500
2903,-85.937500
2904,-85.937500
2905,-85.937500
2906,-82.031250
2907,-82.031250
2908,-82.031250
2909,-82.031250
2910,-82.031250
2911,-82.031250
2912,-82.031250
2913,-82.031250
2914,-82.031250
2915,-82.031250
2916,-78.125000
2917,-78.125000
2918,-78.125000
2919,-78.125000
2920,-78.125000
2921,-74.218750
2922,-78.125000
2923,-78.125000
2924,-74.218750
2925,-74.218750
2926,-74.218750
2927,-74.218750
2928,-74.218750
2929,-74.218750
2930,-74.218750
2931,-74.218750
2932,-74.218750
2933,-74.218750
2934,-70.312500
2935,-70.312500
2936,-70.312500
2937,-70.312500
2938,-70.312500
2939,-70.312500
2940,-66.406250
2941,-66.406250
2942,-66.406250
2943,-66.406250
2944,-66.406250
2945,-66.406250
2946,-66.406250
2947,-66.406250
2948,-66.406250
2949,-62.500000
2950,-62.500000
2951,-62.500000
2952,-62.500000
2953,-62.500000
2954,-62.500000
2955,-62.500000
2956,-62.500000
2957,-62.500000
2958,-58.593750
2959,-58.593750
2960,-58.593750
2961,-58.593750
2962,-58.593750
2963,-58.593750
2964,-54.687500
2965,-54.687500
2966,-54.687500
2967,-54.687500
2968,-54.687500
2969,-54.687500
2970,-54.687500
2971,-50.781250
2972,-50.781250
2973,-54.687500
2974,-46.875000
2975,-54.687500
2976,-50.781250
2977,-50.781250
2978,-46.875000
2979,-46.875000
2980,-46.875000
2981,-46.875000
2982,-46.875000
2983,-46.875000
2984,-46.875000
2985,-42.968750
2986,-42.968750
2987,-42.968750
2988,-42.968750
2989,-42.968750
2990,-42.968750
2991,-42.968750
2992,-39.062500
2993,-39.062500
2994,-39.062500
2995,-39.062500
2996,-39.062500
2997,-39.062500
2998,-39.062500
2999,-35.156250
3000,-35.156250
3001,-35.156250
3002,-35.156250
3003,-35.156250
3004,-35.156250
3005,-35.156250
3006,-31.250000
3007,-31.250000
3008,-31.250000
3009,-31.250000
3010,-31.250000
3011,-31.250000
3012,-27.343750
3013,-27.343750
3014,-27.343750
3015,-27.343750
3016,-27.343750
3017,-27.343750
3018,-27.343750
3019,-27.343750
3020,-23.437500
3021,-23.437500
3022,-23.437500
3023,-23.437500
3024,-23.437500
3025,-19.531250
3026,-19.531250
3027,-19.531250
3028,-19.531250
3029,-19.531250
3030,-19.531250
3031,-19.531250
3032,-19.531250
3033,-15.625000
3034,-15.625000
3035,-15.625000
3036,-15.625000
3037,-15.625000
3038,-15.625000
3039,-11.718750
3040,-11.718750
3041,-11.718750
3042,-11.718750
3043,-11.718750
3044,-11.718750
3045,-11.718750
3046,-7.812500
3047,-7.812500
3048,-7.812500
3049,-7.812500
3050,-7.812500
3051,-7.812500
3052,-7.812500
3053,-3.906250
3054,-3.906250
3055,-3.906250
3056,-3.906250
3057,-3.906250
3058,-3.906250
3059,0.000000
3060,0.000000
3061,0.000000
3062,0.000000
3063,0.000000
3064,0.000000
3065,0.000000
3066,0.000000
3067,3.906250
3068,3.906250
3069,3.906250
3070,3.906250
3071,3.906250
3072,7.812500
3073,3.906250
3074,7.812500
3075,7.812500
3076,7.812500
3077,7.812500
3078,7.812500
3079,7.812500
3080,11.718750
3081,11.718750
3082,11.718750
3083,11.718750
3084,11.718750
3085,11.718750
3086,11.718750
3087,11.718750
3088,15.625000
3089,15.625000
3090,15.625000
3091,15.625000
3092,15.625000
3093,15.625000
3094,15.625000
3095,19.531250
3096,19.531250
3097,19.531250
3098,19.531250
3099,19.531250
3100,23.437500
3101,19.531250
3102,23.437500
3103,23.437500
3104,23.437500
3105,23.437500
3106,23.437500
3107,23.437500
3108,27.343750
3109,27.343750
3110,27.343750
3111,27.343750
3112,27.343750
3113,27.343750
3114,27.343750
3115,27.343750
3116,27.343750
3117,27.343750
3118,31.250000
3119,31.250000
3120,31.250000
3121,31.250000
3122,31.250000
3123,31.250000
3124,35.156250
3125,35.156250
3126,35.156250
3127,35.156250
3128,35.156250
3129,35.156250
3130,35.156250
3131,35.156250
3132,39.062500
3133,39.062500
3134,39.062500
3135,39.062500
3136,39.062500
3137,39.062500
3138,39.062500
3139,39.062500
3140,39.062500
3141,39.062500
3142,42.968750
3143,42.968750
3144,42.968750
3145,42.968750
3146,42.968750
3147,42.968750
3148,42.968750
3149,42.968750
3150,42.968750
3151,42.968750
3152,46.875000
3153,46.875000
3154,46.875000
3155,46.875000
3156,46.875000
3157,46.875000
3158,46.875000
3159,46.875000
3160,46.875000
3161,50.781250
3162,50.781250
3163,50.781250
3164,50.781250
3165,50.781250
3166,50.781250
3167,50.781250
3168,50.781250
3169,50.781250
3170,54.687500
3171,50.781250
3172,54.687500
3173,54.687500
3174,54.687500
3175,54.687500
3176,54.687500
3177,54.687500
3178,54.687500
3179,54.687500
3180,54.687500
3181,54.687500
3182,54.687500
3183,58.593750
3184,58.593750
3185,54.687500
3186,58.593750
3187,58.593750
3188,58.593750
3189,58.593750
3190,58.593750
3191,58.593750
3192,58.593750
3193,58.593750
3194,58.593750
3195,62.500000
3196,58.593750
3197,62.500000
3198,62.500000
3199,62.500000
3200,62.500000
3201,62.500000
3202,62.500000
3203,62.500000
3204,62.500000
3205,62.500000
3206,62.500000
3207,62.500000
3208,62.500000
3209,62.500000
3210,66.406250
3211,66.406250
3212,66.406250
3213,66.406250
3214,66.406250
3215,66.406250
3216,66.406250
3217,66.406250
3218,66.406250
3219,66.406250
3220,66.406250
3221,66.406250
3222,66.406250
3223,66.406250
3224,66.406250
3225,70.312500
3226,66.406250
3227,66.406250
3228,70.312500
3229,70.312500
3230,70.312500
3231,70.312500
3232,70.312500
3233,70.312500
3234,70.312500
3235,70.312500
3236,70.312500
3237,70.312500
3238,70.312500
3239,70.312500
3240,70.312500
3241,70.312500
3242,70.312500
3243,70.312500
3244,70.312500
3245,70.312500
3246,70.312500
3247,74.218750
3248,70.312500
3249,74.218750
3250,74.218750
3251,74.218750
3252,74.218750
3253,74.218750
3254,74.218750
3255,74.218750
3256,74.218750
3257,74.218750
3258,74.218750
3259,74.218750
3260,74.218750
3261,74.218750
3262,74.218750
3263,74.218750
3264,74.218750
3265,74.218750
3266,74.218750
3267,74.218750
3268,74.218750
3269,74.218750
3270,74.218750
3271,74.218750
3272,74.218750
3273,74.218750
3274,74.218750
3275,74.218750
3276,74.218750
3277,74.218750
3278,74.218750
3279,74.218750
3280,74.218750
3281,74.218750
3282,74.218750
3283,74.218750
3284,74.218750
3285,74.218750
3286,74.218750
3287,74.218750
3288,74.218750
3289,74.218750
3290,74.218750
3291,74.218750
3292,74.218750
3293,74.218750
3294,74.218750
3295,74.218750
3296,74.218750
3297,74.218750
3298,74.218750
3299,74.218750
3300,74.218750
3301,74.218750
3302,74.218750
3303,74.218750
3304,74.218750
3305,74.218750
3306,74.218750
3307,74.218750
3308,74.218750
3309,74.218750
3310,74.218750
3311,74.218750
3312,74.218750
3313,74.218750
3314,74.218750
3315,74.218750
3316,74.218750
3317,74.218750
3318,74.218750
3319,74.218750
3320,74.218750
3321,74.218750
3322,74.218750
3323,74.218750
3324,70.312500
3325,74.218750
3326,74.218750
3327,74.218750
3328,70.312500
3329,70.312500
3330,70.312500
3331,70.312500
3332,70.312500
3333,70.312500
3334,70.312500
3335,70.312500
3336,70.312500
3337,70.312500
3338,70.312500
3339,70.312500
3340,70.312500
3341,70.312500
3342,70.312500
3343,70.312500
3344,70.312500
3345,70.312500
3346,70.312500
3347,70.312500
3348,70.312500
3349,70.312500
3350,70.312500
3351,70.312500
3352,70.312500
3353,70.312500
3354,66.406250
3355,70.312500
3356,66.406250
3357,66.406250
3358,66.406250
3359,66.406250
3360,66.406250
3361,66.406250
3362,66.406250
3363,66.406250
3364,66.406250
3365,66.406250
3366,66.406250
3367,66.406250
3368,66.406250
3369,66.406250
3370,62.500000
3371,62.500000
3372,62.500000
3373,62.500000
3374,62.500000
3375,62.500000
3376,62.500000
3377,62.500000
3378,62.500000
3379,62.500000
3380,62.500000
3381,62.500000
3382,62.500000
3383,62.500000
3384,62.500000
3385,58.593750
3386,58.593750
3387,58.593750
3388,58.593750
3389,62.500000
3390,58.593750
3391,58.593750
3392,58.593750
3393,58.593750
3394,58.593750
3395,58.593750
3396,58.593750
3397,58.593750
3398,58.593750
3399,58.593750
3400,54.687500
3401,54.687500
3402,54.687500
3403,54.687500
3404,54.687500
3405,54.687500
3406,54.687500
3407,54.687500
3408,54.687500
3409,54.687500
3410,54.687500
3411,50.781250
3412,50.781250
3413,50.781250
3414,50.781250
3415,50.781250
3416,50.781250
3417,50.781250
3418,50.781250
3419,50.781250
3420,46.875000
3421,50.781250
3422,46.875000
3423,46.875000
3424,46.875000
3425,46.875000
3426,46.875000
3427,46.875000
3428,46.875000
3429,42.968750
3430,42.968750
3431,42.968750
3432,42.968750
3433,42.968750
3434,42.968750
3435,42.968750
3436,42.968750
3437,42.968750
3438,42.968750
3439,39.062500
3440,39.062500
3441,39.062500
3442,39.062500
3443,39.062500
3444,39.062500
3445,39.062500
3446,39.062500
3447,39.062500
3448,35.156250
3449,35.156250
3450,35.156250
3451,35.156250
3452,35.156250
3453,35.156250
3454,35.156250
3455,35.156250
3456,35.156250
3457,31.250000
3458,31.250000
3459,31.250000
3460,31.250000
3461,31.250000
3462,31.250000
3463,31.250000
3464,31.250000
3465,27.343750
3466,27.343750
3467,27.343750
3468,27.343750
3469,27.343750
3470,27.343750
3471,27.343750
3472,23.437500
3473,23.437500
3474,23.437500
3475,23.437500
3476,23.437500
3477,23.437500
3478,23.437500
3479,23.437500
3480,23.437500
3481,19.531250
3482,19.531250
3483,19.531250
3484,19.531250
3485,19.531250
3486,19.531250
3487,19.531250
3488,19.531250
3489,15.625000
3490,15.625000
3491,15.625000
3492,15.625000
3493,15.625000
3494,15.625000
3495,11.718750
3496,11.718750
3497,11.718750
3498,11.718750
3499,11.718750
3500,11.718750
3501,11.718750
3502,11.718750
3503,7.812500
3504,7.812500
3505,7.812500
3506,7.812500
3507,7.812500
3508,7.812500
3509,7.812500
3510,7.812500
3511,3.906250
3512,3.906250
3513,3.906250
3514,3.906250
3515,3.906250
3516,3.906250
3517,0.000000
3518,0.000000
3519,0.000000
3520,0.000000
3521,0.000000
3522,0.000000
3523,0.000000
3524,-3.906250
3525,-3.906250
3526,-3.906250
3527,-3.906250
3528,-3.906250
3529,-3.906250
3530,-3.906250
3531,-7.812500
3532,-7.812500
3533,-7.812500
3534,-7.812500
3535,-7.812500
3536,-7.812500
3537,-7.812500
3538,-11.718750
3539,-11.718750
3540,-11.718750
3541,-11.718750
3542,-11.718750
3543,-11.718750
3544,-11.718750
3545,-15.625000
3546,-15.625000
3547,-15.625000
3548,-15.625000
3549,-15.625000
3550,-15.625000
3551,-19.531250
3552,-19.531250
3553,-19.531250
3554,-19.531250
3555,-19.531250
3556,-19.531250
3557,-19.531250
3558,-23.437500
3559,-23.437500
3560,-23.437500
3561,-23.437500
3562,-23.437500
3563,-23.437500
3564,-23.437500
3565,-23.437500
3566,-27.343750
3567,-27.343750
3568,-27.343750
3569,-27.343750
3570,-27.343750
3571,-27.343750
3572,-31.250000
3573,-31.250000
3574,-31.250000
3575,-31.250000
3576,-31.250000
3577,-31.250000
3578,-31.250000
3579,-35.156250
3580,-35.156250
3581,-35.156250
3582,-35.156250
3583,-35.156250
3584,-35.156250
3585,-35.156250
3586,-35.156250
3587,-39.062500
3588,-39.062500
3589,-39.062500
3590,-39.062500
3591,-39.062500
3592,-39.062500
3593,-42.968750
3594,-42.968750
3595,-42.968750
3596,-42.968750
3597,-42.968750
3598,-42.968750
3599,-46.875000
3600,-46.875000
3601,-46.875000
3602,-46.875000
3603,-46.875000
3604,-46.875000
3605,-46.875000
3606,-50.781250
3607,-50.781250
3608,-50.781250
3609,-50.781250
3610,-50.781250
3611,-50.781250
3612,-50.781250
3613,-50.781250
3614,-50.781250
3615,-54.687500
3616,-54.687500
3617,-54.687500
3618,-54.687500
3619,-54.687500
3620,-54.687500
3621,-58.593750
3622,-58.593750
3623,-58.593750
3624,-58.593750
3625,-58.593750
3626,-58.593750
3627,-58.593750
3628,-62.500000
3629,-62.500000
3630,-62.500000
3631,-62.500000
3632,-62.500000
3633,-62.500000
3634,-62.500000
3635,-62.500000
3636,-62.500000
3637,-66.406250
3638,-66.406250
3639,-66.406250
3640,-66.406250
3641,-66.406250
3642,-66.406250
3643,-70.312500
3644,-70.312500
3645,-70.312500
3646,-70.312500
3647,-70.312500
3648,-70.312500
3649,-70.312500
3650,-70.312500
3651,-70.312500
3652,-74.218750
3653,-74.218750
3654,-74.218750
3655,-74.218750
3656,-74.218750
3657,-74.218750
3658,-74.218750
3659,-74.218750
3660,-74.218750
3661,-78.125000
3662,-78.125000
3663,-78.125000
3664,-78.125000
3665,-78.125000
3666,-78.125000
3667,-78.125000
3668,-78.125000
3669,-78.125000
3670,-78.125000
3671,-82.031250
3672,-82.031250
3673,-82.031250
3674,-82.031250
3675,-82.031250
3676,-82.031250
3677,-82.031250
3678,-82.031250
3679,-85.937500
3680,-85.937500
3681,-85.937500
3682,-85.937500
3683,-85.937500
3684,-85.937500
3685,-85.937500
3686,-85.937500
3687,-85.937500
3688,-85.937500
3689,-85.937500
3690,-89.843750
3691,-89.843750
3692,-89.843750
3693,-89.843750
3694,-89.843750
3695,-89.843750
3696,-89.843750
3697,-89.843750
3698,-89.843750
3699,-89.843750
3700,-89.843750
3701,-93.750000
3702,-93.750000
3703,-93.750000
3704,-93.750000
3705,-93.750000
3706,-93.750000
3707,-93.750000
3708,-93.750000
3709,-93.750000
3710,-93.750000
3711,-93.750000
3712,-93.750000
3713,-93.750000
3714,-93.750000
3715,-97.656250
3716,-97.656250
3717,-97.656250
3718,-97.656250
3719,-97.656250
3720,-97.656250
3721,-97.656250
3722,-97.656250
3723,-97.656250
3724,-97.656250
3725,-97.656250
3726,-97.656250
3727,-97.656250
3728,-97.656250
3729,-101.562500
3730,-101.562500
3731,-101.562500
3732,-101.562500
3733,-101.562500
3734,-101.562500
3735,-101.562500
3736,-101.562500
3737,-101.562500
3738,-101.562500
3739,-101.562500
3740,-101.562500
3741,-101.562500
3742,-101.562500
3743,-101.562500
3744,-101.562500
3745,-101.562500
3746,-101.562500
3747,-101.562500
3748,-101.562500
3749,-101.562500
3750,-101.562500
3751,-105.468750
3752,-105.468750
3753,-105.468750
3754,-105.468750
3755,-105.468750
3756,-105.468750
3757,-105.468750
3758,-105.468750
3759,-105.468750
3760,-105.468750
3761,-105.468750
3762,-105.468750
3763,-105.468750
3764,-105.468750
3765,-105.468750
3766,-105.468750
3767,-105.468750
3768,-105.468750
3769,-105.468750
3770,-105.468750
3771,-105.468750
3772,-105.468750
3773,-105.468750
3774,-105.468750
3775,-105.468750
3776,-105.468750
3777,-105.468750
3778,-105.468750
3779,-105.468750
3780,-105.468750
3781,-105.468750
3782,-105.468750
3783,-105.468750
3784,-105.468750
3785,-105.468750
3786,-105.468750
3787,-105.468750
3788,-105.468750
3789,-105.468750
3790,-105.468750
3791,-105.468750
3792,-105.468750
3793,-105.468750
3794,-105.468750
3795,-105.468750
3796,-105.468750
3797,-105.468750
3798,-105.468750
3799,-105.468750
3800,-105.468750
3801,-105.468750
3802,-105.468750
3803,-105.468750
3804,-105.468750
3805,-105.468750
3806,-105.468750
3807,-105.468750
3808,-105.468750
3809,-105.468750
3810,-105.468750
3811,-105.468750
3812,-105.468750
3813,-105.468750
3814,-105.468750
3815,-105.468750
3816,-105.468750
3817,-105.468750
3818,-105.468750
3819,-105.468750
3820,-105.468750
3821,-101.562500
3822,-101.562500
3823,-101.562500
3824,-101.562500
3825,-101.562500
3826,-101.562500
3827,-101.562500
3828,-101.562500
3829,-101.562500
3830,-101.562500
3831,-101.562500
3832,-101.562500
3833,-101.562500
3834,-101.562500
3835,-101.562500
3836,-101.562500
3837,-101.562500
3838,-101.562500
3839,-101.562500
3840,-101.562500
3841,-97.656250
3842,-101.562500
3843,-101.562500
3844,-101.562500
3845,-101.562500
3846,-97.656250
3847,-97.656250
3848,-97.656250
3849,-97.656250
3850,-97.656250
3851,-97.656250
3852,-97.656250
3853,-97.656250
3854,-97.656250
3855,-97.656250
3856,-97.656250
3857,-97.656250
3858,-97.656250
3859,-97.656250
3860,-93.750000
3861,-93.750000
3862,-93.750000
3863,-93.750000
3864,-93.750000
3865,-93.750000
3866,-93.750000
3867,-93.750000
3868,-93.750000
3869,-93.750000
3870,-93.750000
3871,-93.750000
3872,-93.750000
3873,-93.750000
3874,-89.843750
3875,-89.843750
3876,-89.843750
3877,-89.843750
3878,-89.843750
3879,-89.843750
3880,-89.843750
3881,-89.843750
3882,-89.843750
3883,-89.843750
3884,-89.843750
3885,-85.937500
3886,-85.937500
3887,-85.937500
3888,-85.937500
3889,-85.937500
3890,-85.937500
3891,-85.937500
3892,-85.937500
3893,-85.937500
3894,-85.937500
3895,-85.937500
3896,-82.031250
3897,-82.031250
3898,-82.031250
3899,-82.031250
3900,-82.031250
3901,-82.031250
3902,-82.031250
3903,-82.031250
3904,-82.031250
3905,-78.125000
3906,-78.125000
3907,-78.125000
3908,-78.125000
3909,-78.125000
3910,-78.125000
3911,-78.125000
3912,-78.125000
3913,-78.125000
3914,-74.218750
3915,-74.218750
3916,-74.218750
3917,-74.218750
3918,-74.218750
3919,-74.218750
3920,-74.218750
3921,-74.218750
3922,-70.312500
3923,-70.312500
3924,-70.312500
3925,-70.312500
3926,-70.312500
3927,-70.312500
3928,-70.312500
3929,-70.312500
3930,-66.406250
3931,-66.406250
3932,-66.406250
3933,-66.406250
3934,-66.406250
3935,-66.406250
3936,-66.406250
3937,-66.406250
3938,-62.500000
3939,-62.500000
3940,-62.500000
3941,-62.500000
3942,-62.500000
3943,-62.500000
3944,-62.500000
3945,-62.500000
3946,-58.593750
3947,-58.593750
3948,-58.593750
3949,-58.593750
3950,-58.593750
3951,-58.593750
3952,-54.687500
3953,-54.687500
3954,-54.687500
3955,-54.687500
3956,-54.687500
3957,-54.687500
3958,-54.687500
3959,-54.687500
3960,-50.781250
3961,-50.781250
3962,-50.781250
3963,-50.781250
3964,-50.781250
3965,-50.781250
3966,-50.781250
3967,-50.781250
3968,-50.781250
3969,-46.875000
3970,-46.875000
3971,-46.875000
3972,-46.875000
3973,-46.875000
3974,-46.875000
3975,-42.968750
3976,-42.968750
3977,-42.968750
3978,-42.968750
3979,-42.968750
3980,-39.062500
3981,-42.968750
3982,-39.062500
3983,-39.062500
3984,-39.062500
3985,-39.062500
3986,-39.062500
3987,-39.062500
3988,-39.062500
3989,-35.156250
3990,-35.156250
3991,-35.156250
3992,-35.156250
3993,-35.156250
3994,-35.156250
3995,-35.156250
3996,-31.250000
3997,-31.250000
3998,-31.250000
3999,-31.250000
4000,-31.250000
4001,-31.250000
4002,-27.343750
4003,-27.343750
4004,-27.343750
4005,-27.343750
4006,-27.343750
4007,-27.343750
4008,-27.343750
4009,-23.437500
4010,-23.437500
4011,-23.437500
4012,-23.437500
4013,-23.437500
4014,-23.437500
4015,-23.437500
4016,-19.531250
4017,-19.531250
4018,-19.531250
4019,-19.531250
4020,-19.531250
4021,-19.531250
4022,-19.531250
4023,-15.625000
4024,-15.625000
4025,-15.625000
4026,-15.625000
4027,-15.625000
4028,-11.718750
4029,-11.718750
4030,-11.718750
4031,-11.718750
4032,-11.718750
4033,-11.718750
4034,-11.718750
4035,-11.718750
4036,-7.812500
4037,-7.812500
4038,-7.812500
4039,-7.812500
4040,-7.812500
4041,-7.812500
4042,-7.812500
4043,-3.906250
4044,-3.906250
4045,-3.906250
4046,-3.906250
4047,-3.906250
4048,-3.906250
4049,-3.906250
4050,0.000000
4051,0.000000
4052,0.000000
4053,0.000000
4054,0.000000
4055,0.000000
4056,0.000000
4057,3.906250
4058,3.906250
4059,3.906250
4060,3.906250
4061,3.906250
4062,3.906250
4063,7.812500
4064,7.812500
4065,7.812500
4066,7.812500
4067,7.812500
4068,7.812500
4069,7.812500
4070,11.718750
4071,11.718750
4072,11.718750
4073,11.718750
4074,11.718750
4075,11.718750
4076,11.718750
4077,15.625000
4078,15.625000
4079,15.625000
4080,15.625000
4081,15.625000
4082,15.625000
4083,15.625000
4084,15.625000
4085,19.531250
4086,19.531250
4087,19.531250
4088,19.531250
4089,19.531250
4090,19.531250
4091,19.531250
4092,19.531250
4093,23.437500
4094,23.437500
4095,23.437500
4096,23.437500
4097,23.437500
4098,23.437500
4099,27.343750
4100,27.343750
4101,27.343750
4102,27.343750
4103,27.343750
4104,27.343750
4105,27.343750
4106,27.343750
4107,31.250000
4108,31.250000
4109,31.250000
4110,31.250000
4111,31.250000
4112,31.250000
4113,31.250000
4114,31.250000
4115,31.250000
4116,35.156250
4117,35.156250
4118,35.156250
4119,35.156250
4120,35.156250
4121,35.156250
4122,35.156250
4123,35.156250
4124,35.156250
4125,35.156250
4126,39.062500
4127,39.062500
4128,39.062500
4129,39.062500
4130,39.062500
4131,39.062500
4132,39.062500
4133,39.062500
4134,42.968750
4135,42.968750
4136,42.968750
4137,42.968750
4138,42.968750
4139,42.968750
4140,42.968750
4141,42.968750
4142,46.875000
4143,46.875000
4144,46.875000
4145,46.875000
4146,46.875000
4147,46.875000
4148,46.875000
4149,46.875000
4150,46.875000
4151,46.875000
4152,50.781250
4153,50.781250
4154,50.781250
4155,50.781250
4156,50.781250
4157,50.781250
4158,50.781250
4159,50.781250
4160,50.781250
4161,50.781250
4162,54.687500
4163,54.687500
4164,54.687500
4165,54.687500
4166,54.687500
4167,54.687500
4168,54.687500
4169,54.687500
4170,54.687500
4171,54.687500
4172,54.687500
4173,54.687500
4174,54.687500
4175,58.593750
4176,58.593750
4177,58.593750
4178,58.593750
4179,58.593750
4180,58.593750
4181,58.593750
4182,58.593750
4183,58.593750
4184,58.593750
4185,62.500000
4186,62.500000
4187,62.500000
4188,62.500000
4189,62.500000
4190,62.500000
4191,62.500000
4192,62.500000
4193,62.500000
4194,62.500000
4195,62.500000
4196,62.500000
4197,62.500000
4198,66.406250
4199,62.500000
4200,66.406250
4201,66.406250
4202,66.406250
4203,66.406250
4204,66.406250
4205,66.406250
4206,66.406250
4207,66.406250
4208,66.406250
4209,66.406250
4210,66.406250
4211,66.406250
4212,66.406250
4213,66.406250
4214,66.406250
4215,66.406250
4216,66.406250
4217,66.406250
4218,66.406250
4219,70.312500
4220,70.312500
4221,70.312500
4222,70.312500
4223,70.312500
4224,70.312500
4225,70.312500
4226,70.312500
4227,70.312500
4228,70.312500
4229,70.312500
4230,70.312500
4231,70.312500
4232,70.312500
4233,66.406250
4234,70.312500
4235,70.312500
4236,70.312500
4237,70.312500
4238,70.312500
4239,70.312500
4240,70.312500
4241,70.312500
4242,70.312500
4243,70.312500
4244,70.312500
4245,70.312500
4246,70.312500
4247,70.312500
4248,70.312500
4249,74.218750
4250,74.218750
4251,74.218750
4252,74.218750
4253,74.218750
4254,74.218750
4255,74.218750
4256,74.218750
4257,74.218750
4258,74.218750
4259,74.218750
4260,74.218750
4261,74.218750
4262,74.218750
4263,74.218750
4264,74.218750
4265,74.218750
4266,74.218750
4267,74.218750
4268,74.218750
4269,74.218750
4270,74.218750
4271,74.218750
4272,74.218750
4273,74.218750
4274,74.218750
4275,74.218750
4276,74.218750
4277,74.218750
4278,74.218750
4279,74.218750
4280,74.218750
4281,74.218750
4282,74.218750
4283,74.218750
4284,74.218750
4285,74.218750
4286,74.218750
4287,74.218750
4288,74.218750
4289,74.218750
4290,74.218750
4291,74.218750
4292,74.218750
4293,74.218750
4294,74.218750
4295,74.218750
4296,74.218750
4297,74.218750
4298,74.218750
4299,74.218750
4300,74.218750
4301,74.218750
4302,74.218750
4303,74.218750
4304,74.218750
4305,74.218750
4306,74.218750
4307,74.218750
4308,74.218750
4309,74.218750
4310,74.218750
4311,74.218750
4312,74.218750
4313,74.218750
4314,74.218750
4315,74.218750
4316,74.218750
4317,70.312500
4318,70.312500
4319,70.312500
4320,70.312500
4321,70.312500
4322,70.312500
4323,70.312500
4324,70.312500
4325,70.312500
4326,70.312500
4327,70.312500
4328,70.312500
4329,70.312500
4330,70.312500
4331,70.312500
4332,70.312500
4333,70.312500
4334,70.312500
4335,70.312500
4336,70.312500
4337,70.312500
4338,70.312500
4339,70.312500
4340,70.312500
4341,70.312500
4342,66.406250
4343,66.406250
4344,66.406250
4345,66.406250
4346,66.406250
4347,70.312500
4348,66.406250
4349,66.406250
4350,66.406250
4351,66.406250
4352,66.406250
4353,66.406250
4354,66.406250
4355,66.406250
4356,66.406250
4357,66.406250
4358,66.406250
4359,62.500000
4360,62.500000
4361,62.500000
4362,62.500000
4363,62.500000
4364,62.500000
4365,62.500000
4366,62.500000
4367,62.500000
4368,62.500000
4369,62.500000
4370,62.500000
4371,62.500000
4372,62.500000
4373,62.500000
4374,62.500000
4375,58.593750
4376,58.593750
4377,58.593750
4378,58.593750
4379,58.593750
4380,58.593750
4381,58.593750
4382,58.593750
4383,58.593750
4384,58.593750
4385,58.593750
4386,54.687500
4387,54.687500
4388,54.687500
4389,54.687500
4390,54.687500
4391,54.687500
4392,54.687500
4393,54.687500
4394,54.687500
4395,54.687500
4396,54.687500
4397,54.687500
4398,54.687500
4399,50.781250
4400,50.781250
4401,50.781250
4402,50.781250
4403,50.781250
4404,50.781250
4405,50.781250
4406,50.781250
4407,50.781250
4408,50.781250
4409,50.781250
4410,50.781250
4411,46.875000
4412,46.875000
4413,46.875000
4414,46.875000
4415,46.875000
4416,46.875000
4417,46.875000
4418,46.875000
4419,46.875000
4420,46.875000
4421,42.968750
4422,42.968750
4423,42.968750
4424,42.968750
4425,42.968750
4426,42.968750
4427,42.968750
4428,42.968750
4429,42.968750
4430,39.062500
4431,39.062500
4432,39.062500
4433,39.062500
4434,39.062500
4435,39.062500
4436,39.062500
4437,39.062500
4438,39.062500
4439,35.156250
4440,35.156250
4441,35.156250
4442,35.156250
4443,35.156250
4444,35.156250
4445,35.156250
4446,35.156250
4447,31.250000
4448,31.250000
4449,31.250000
4450,31.250000
4451,31.250000
4452,31.250000
4453,31.250000
4454,31.250000
4455,27.343750
4456,27.343750
4457,27.343750
4458,27.343750
4459,27.343750
4460,27.343750
4461,27.343750
4462,27.343750
4463,27.343750
4464,23.437500
4465,23.437500
4466,23.437500
4467,23.437500
4468,23.437500
4469,23.437500
4470,23.437500
4471,23.437500
4472,19.531250
4473,19.531250
4474,19.531250
4475,19.531250
4476,19.531250
4477,19.531250
4478,19.531250
4479,15.625000
4480,15.625000
4481,15.625000
4482,15.625000
4483,15.625000
4484,15.625000
4485,15.625000
4486,15.625000
4487,11.718750
4488,11.718750
4489,11.718750
4490,11.718750
4491,11.718750
4492,11.718750
4493,7.812500
4494,7.812500
4495,11.718750
4496,7.812500
4497,7.812500
4498,7.812500
4499,7.812500
4500,7.812500
4501,3.906250
4502,3.906250
4503,3.906250
4504,3.906250
4505,3.906250
4506,3.906250
4507,3.906250
4508,0.000000
4509,0.000000
4510,0.000000
4511,0.000000
4512,0.000000
4513,0.000000
4514,-3.906250
4515,-3.906250
4516,-3.906250
4517,-3.906250
4518,-3.906250
4519,-3.906250
4520,-7.812500
4521,-7.812500
4522,-7.812500
4523,-7.812500
4524,-7.812500
4525,-7.812500
4526,-7.812500
4527,-11.718750
4528,-11.718750
4529,-11.718750
4530,-11.718750
4531,-11.718750
4532,-11.718750
4533,-11.718750
4534,-11.718750
4535,-15.625000
4536,-15.625000
4537,-15.625000
4538,-15.625000
4539,-15.625000
4540,-19.531250
4541,-15.625000
4542,-19.531250
4543,-19.531250
4544,-19.531250
4545,-19.531250
4546,-19.531250
4547,-19.531250
4548,-23.437500
4549,-23.437500
4550,-23.437500
4551,-19.531250
4552,-23.437500
4553,-23.437500
4554,-23.437500
4555,-27.343750
4556,-27.343750
4557,-27.343750
4558,-23.437500
4559,-27.343750
4560,-27.343750
4561,-31.250000
4562,-31.250000
4563,-31.250000
4564,-31.250000
4565,-31.250000
4566,-31.250000
4567,-31.250000
4568,-31.250000
4569,-31.250000
4570,-35.156250
4571,-35.156250
4572,-35.156250
4573,-35.156250
4574,-35.156250
4575,-39.062500
4576,-35.156250
4577,-39.062500
4578,-39.062500
4579,-39.062500
4580,-39.062500
4581,-39.062500
4582,-39.062500
4583,-42.968750
4584,-42.968750
4585,-42.968750
4586,-42.968750
4587,-42.968750
4588,-42.968750
4589,-42.968750
4590,-46.875000
4591,-46.875000
4592,-46.875000
4593,-46.875000
4594,-46.875000
4595,-46.875000
4596,-46.875000
4597,-46.875000
4598,-50.781250
4599,-50.781250
4600,-50.781250
4601,-50.781250
4602,-50.781250
4603,-50.781250
4604,-54.687500
4605,-54.687500
4606,-54.687500
4607,-54.687500
4608,-54.687500
4609,-54.687500
4610,-54.687500
4611,-54.687500
4612,-58.593750
4613,-58.593750
4614,-58.593750
4615,-58.593750
4616,-58.593750
4617,-58.593750
4618,-62.500000
4619,-58.593750
4620,-62.500000
4621,-62.500000
4622,-62.500000
4623,-62.500000
4624,-62.500000
4625,-62.500000
4626,-66.406250
4627,-66.406250
4628,-66.406250
4629,-66.406250
4630,-66.406250
4631,-62.500000
4632,-70.312500
4633,-66.406250
4634,-70.312500
4635,-70.312500
4636,-70.312500
4637,-70.312500
4638,-70.312500
4639,-70.312500
4640,-70.312500
4641,-70.312500
4642,-70.312500
4643,-74.218750
4644,-74.218750
4645,-74.218750
4646,-74.218750
4647,-74.218750
4648,-74.218750
4649,-74.218750
4650,-78.125000
4651,-78.125000
4652,-78.125000
4653,-78.125000
4654,-78.125000
4655,-78.125000
4656,-78.125000
4657,-78.125000
4658,-78.125000
4659,-78.125000
4660,-82.031250
4661,-82.031250
4662,-82.031250
4663,-82.031250
4664,-82.031250
4665,-82.031250
4666,-82.031250
4667,-82.031250
4668,-82.031250
4669,-82.031250
4670,-82.031250
4671,-85.937500
4672,-85.937500
4673,-85.937500
4674,-85.937500
4675,-85.937500
4676,-85.937500
4677,-85.937500
4678,-85.937500
4679,-85.937500
4680,-85.937500
4681,-85.937500
4682,-89.843750
4683,-89.843750
4684,-89.843750
4685,-89.843750
4686,-89.843750
4687,-89.843750
4688,-89.843750
4689,-89.843750
4690,-89.843750
4691,-93.750000
4692,-93.750000
4693,-93.750000
4694,-93.750000
4695,-93.750000
4696,-93.750000
4697,-93.750000
4698,-93.750000
4699,-93.750000
4700,-93.750000
4701,-93.750000
4702,-93.750000
4703,-93.750000
4704,-97.656250
4705,-97.656250
4706,-97.656250
4707,-97.656250
4708,-97.656250
4709,-97.656250
4710,-97.656250
4711,-97.656250
4712,-97.656250
4713,-97.656250
4714,-97.656250
4715,-97.656250
4716,-97.656250
4717,-97.656250
4718,-97.656250
4719,-97.656250
4720,-97.656250
4721,-97.656250
4722,-101.562500
4723,-101.562500
4724,-101.562500
4725,-101.562500
4726,-101.562500
4727,-101.562500
4728,-101.562500
4729,-101.562500
4730,-101.562500
4731,-101.562500
4732,-101.562500
4733,-101.562500
4734,-101.562500
4735,-101.562500
4736,-101.562500
4737,-101.562500
4738,-101.562500
4739,-101.562500
4740,-105.468750
4741,-105.468750
4742,-105.468750
4743,-105.468750
4744,-105.468750
4745,-105.468750
4746,-105.468750
4747,-105.468750
4748,-105.468750
4749,-105.468750
4750,-105.468750
4751,-105.468750
4752,-105.468750
4753,-105.468750
4754,-105.468750
4755,-105.468750
4756,-105.468750
4757,-105.468750
4758,-105.468750
4759,-105.468750
4760,-105.468750
4761,-105.468750
4762,-105.468750
4763,-105.468750
4764,-105.468750
4765,-105.468750
4766,-105.468750
4767,-105.468750
4768,-105.468750
4769,-105.468750
4770,-105.468750
4771,-105.468750
4772,-105.468750
4773,-105.468750
4774,-105.468750
4775,-105.468750
4776,-105.468750
4777,-105.468750
4778,-105.468750
4779,-105.468750
4780,-105.468750
4781,-105.468750
4782,-105.468750
4783,-105.468750
4784,-105.468750
4785,-105.468750
4786,-105.468750
4787,-105.468750
4788,-105.468750
4789,-105.468750
4790,-105.468750
4791,-105.468750
4792,-105.468750
4793,-105.468750
4794,-105.468750
4795,-105.468750
4796,-105.468750
4797,-105.468750
4798,-105.468750
4799,-105.468750
4800,-105.468750
4801,-105.468750
4802,-105.468750
4803,-105.468750
4804,-105.468750
4805,-105.468750
4806,-105.468750
4807,-105.468750
4808,-105.468750
4809,-105.468750
4810,-105.468750
4811,-105.468750
4812,-101.562500
4813,-105.468750
4814,-105.468750
4815,-101.562500
4816,-101.562500
4817,-101.562500
4818,-101.562500
4819,-101.562500
4820,-101.562500
4821,-101.562500
4822,-101.562500
4823,-101.562500
4824,-101.562500
4825,-101.562500
4826,-101.562500
4827,-101.562500
4828,-101.562500
4829,-101.562500
4830,-101.562500
4831,-97.656250
4832,-97.656250
4833,-101.562500
4834,-97.656250
4835,-97.656250
4836,-97.656250
4837,-97.656250
4838,-97.656250
4839,-97.656250
4840,-97.656250
4841,-97.656250
4842,-97.656250
4843,-97.656250
4844,-97.656250
4845,-97.656250
4846,-97.656250
4847,-97.656250
4848,-97.656250
4849,-93.750000
4850,-93.750000
4851,-93.750000
4852,-93.750000
4853,-93.750000
4854,-93.750000
4855,-93.750000
4856,-93.750000
4857,-93.750000
4858,-93.750000
4859,-93.750000
4860,-93.750000
4861,-93.750000
4862,-93.750000
4863,-93.750000
4864,-89.843750
4865,-89.843750
4866,-89.843750
4867,-89.843750
4868,-89.843750
4869,-89.843750
4870,-89.843750
4871,-89.843750
4872,-89.843750
4873,-89.843750
4874,-89.843750
4875,-85.937500
4876,-85.937500
4877,-85.937500
4878,-85.937500
4879,-85.937500
4880,-85.937500
4881,-85.937500
4882,-85.937500
4883,-85.937500
4884,-85.937500
4885,-82.031250
4886,-85.937500
4887,-82.031250
4888,-82.031250
4889,-82.031250
4890,-82.031250
4891,-82.031250
4892,-82.031250
4893,-82.031250
4894,-82.031250
4895,-82.031250
4896,-78.125000
4897,-78.125000
4898,-78.125000
4899,-78.125000
4900,-78.125000
4901,-78.125000
4902,-78.125000
4903,-74.218750
4904,-74.218750
4905,-74.218750
4906,-74.218750
4907,-74.218750
4908,-74.218750
4909,-74.218750
4910,-74.218750
4911,-74.218750
4912,-74.218750
4913,-70.312500
4914,-70.312500
4915,-70.312500
4916,-70.312500
4917,-70.312500
4918,-70.312500
4919,-70.312500
4920,-70.312500
4921,-70.312500
4922,-66.406250
4923,-66.406250
4924,-66.406250
4925,-66.406250
4926,-66.406250
4927,-66.406250
4928,-62.500000
4929,-62.500000
4930,-62.500000
4931,-62.500000
4932,-62.500000
4933,-62.500000
4934,-62.500000
4935,-62.500000
4936,-58.593750
4937,-58.593750
4938,-58.593750
4939,-58.593750
4940,-58.593750
4941,-54.687500
4942,-58.593750
4943,-54.687500
4944,-54.687500
4945,-54.687500
4946,-54.687500
4947,-54.687500
4948,-54.687500
4949,-54.687500
4950,-54.687500
4951,-50.781250
4952,-50.781250
4953,-50.781250
4954,-50.781250
4955,-50.781250
4956,-50.781250
4957,-46.875000
4958,-46.875000
4959,-50.781250
4960,-46.875000
4961,-46.875000
4962,-46.875000
4963,-46.875000
4964,-42.968750
4965,-46.875000
4966,-42.968750
4967,-42.968750
4968,-42.968750
4969,-42.968750
4970,-42.968750
4971,-42.968750
4972,-39.062500
4973,-39.062500
4974,-39.062500
4975,-39.062500
4976,-39.062500
4977,-39.062500
4978,-35.156250
4979,-35.156250
4980,-35.156250
4981,-35.156250
4982,-35.156250
4983,-35.156250
4984,-35.156250
4985,-31.250000
4986,-31.250000
4987,-31.250000
4988,-31.250000
4989,-31.250000
4990,-31.250000
4991,-31.250000
4992,-31.250000
4993,-27.343750
4994,-27.343750
4995,-27.343750
4996,-27.343750
4997,-27.343750
4998,-27.343750
4999,-23.437500
5000,-23.437500
5001,-23.437500
5002,-23.437500
5003,-23.437500
5004,-23.437500
5005,-23.437500
5006,-19.531250
5007,-19.531250
5008,-19.531250
5009,-19.531250
5010,-19.531250
5011,-19.531250
5012,-15.625000
5013,-15.625000
5014,-15.625000
5015,-15.625000
5016,-15.625000
5017,-15.625000
5018,-15.625000
5019,-11.718750
5020,-11.718750
5021,-11.718750
5022,-11.718750
5023,-11.718750
5024,-11.718750
5025,-7.812500
5026,-7.812500
5027,-7.812500
5028,-7.812500
5029,-7.812500
5030,-7.812500
5031,-7.812500
5032,-7.812500
5033,-3.906250
5034,-3.906250
5035,-3.906250
5036,-3.906250
5037,-3.906250
5038,-3.906250
5039,-3.906250
5040,0.000000
5041,0.000000
5042,0.000000
5043,0.000000
5044,0.000000
5045,0.000000
5046,3.906250
5047,3.906250
5048,3.906250
5049,3.906250
5050,3.906250
5051,3.906250
5052,7.812500
5053,7.812500
5054,7.812500
5055,7.812500
5056,7.812500
5057,7.812500
5058,7.812500
5059,7.812500
5060,11.718750
5061,11.718750
5062,11.718750
5063,11.718750
5064,11.718750
5065,11.718750
5066,15.625000
5067,15.625000
5068,15.625000
5069,15.625000
5070,15.625000
5071,15.625000
5072,15.625000
5073,15.625000
5074,15.625000
5075,19.531250
5076,19.531250
5077,19.531250
5078,19.531250
5079,19.531250
5080,23.437500
5081,19.531250
5082,23.437500
5083,23.437500
5084,23.437500
5085,23.437500
5086,23.437500
5087,23.437500
5088,27.343750
5089,27.343750
5090,27.343750
5091,27.343750
5092,27.343750
5093,27.343750
5094,27.343750
5095,27.343750
5096,27.343750
5097,31.250000
5098,31.250000
5099,31.250000
5100,31.250000
5101,31.250000
5102,31.250000
5103,31.250000
5104,31.250000
5105,35.156250
5106,35.156250
5107,35.156250
5108,35.156250
5109,35.156250
5110,35.156250
5111,35.156250
5112,35.156250
5113,35.156250
5114,39.062500
5115,39.062500
5116,39.062500
5117,39.062500
5118,39.062500
5119,39.062500
5120,39.062500
5121,39.062500
5122,39.062500
5123,42.968750
5124,42.968750
5125,42.968750
5126,42.968750
5127,42.968750
5128,42.968750
5129,42.968750
5130,42.968750
5131,42.968750
5132,46.875000
5133,46.875000
5134,46.875000
5135,46.875000
5136,46.875000
5137,46.875000
5138,46.875000
5139,46.875000
5140,46.875000
5141,46.875000
5142,46.875000
5143,50.781250
5144,50.781250
5145,50.781250
5146,50.781250
5147,50.781250
5148,50.781250
5149,50.781250
5150,50.781250
5151,54.687500
5152,54.687500
5153,54.687500
5154,54.687500
5155,54.687500
5156,54.687500
5157,54.687500
5158,54.687500
5159,54.687500
5160,54.687500
5161,54.687500
5162,58.593750
5163,54.687500
5164,54.687500
5165,58.593750
5166,58.593750
5167,58.593750
5168,58.593750
5169,58.593750
5170,58.593750
5171,58.593750
5172,58.593750
5173,58.593750
5174,58.593750
5175,58.593750
5176,58.593750
5177,62.500000
5178,62.500000
5179,62.500000
5180,62.500000
5181,62.500000
5182,62.500000
5183,62.500000
5184,62.500000
5185,62.500000
5186,62.500000
5187,62.500000
5188,62.500000
5189,66.406250
5190,66.406250
5191,66.406250
5192,66.406250
5193,66.406250
5194,66.406250
5195,66.406250
5196,66.406250
5197,66.406250
5198,66.406250
5199,66.406250
5200,66.406250
5201,66.406250
5202,66.406250
5203,66.406250
5204,66.406250
5205,70.312500
5206,70.312500
5207,70.312500
5208,70.312500
5209,70.312500
5210,70.312500
5211,70.312500
5212,70.312500
5213,70.312500
5214,70.312500
5215,70.312500
5216,70.312500
5217,70.312500
5218,70.312500
5219,70.312500
5220,70.312500
5221,70.312500
5222,70.312500
5223,70.312500
5224,70.312500
5225,70.312500
5226,70.312500
5227,70.312500
5228,70.312500
5229,70.312500
5230,74.218750
5231,74.218750
5232,74.218750
5233,74.218750
5234,74.218750
5235,74.218750
5236,74.218750
5237,74.218750
5238,74.218750
5239,74.218750
5240,74.218750
5241,74.218750
5242,74.218750
5243,74.218750
5244,74.218750
5245,74.218750
5246,74.218750
5247,74.218750
5248,74.218750
5249,74.218750
5250,74.218750
5251,74.218750
5252,74.218750
5253,74.218750
5254,74.218750
5255,74.218750
5256,74.218750
5257,74.218750
5258,74.218750
5259,74.218750
5260,74.218750
5261,74.218750
5262,74.218750
5263,74.218750
5264,74.218750
5265,74.218750
5266,74.218750
5267,74.218750
5268,74.218750
5269,74.218750
5270,74.218750
5271,74.218750
5272,74.218750
5273,74.218750
5274,74.218750
5275,74.218750
5276,74.218750
5277,74.218750
5278,74.218750
5279,74.218750
5280,74.218750
5281,74.218750
5282,74.218750
5283,74.218750
5284,74.218750
5285,74.218750
5286,74.218750
5287,74.218750
5288,74.218750
5289,74.218750
5290,74.218750
5291,74.218750
5292,74.218750
5293,74.218750
5294,74.218750
5295,74.218750
5296,74.218750
5297,74.218750
5298,74.218750
5299,74.218750
5300,74.218750
5301,74.218750
5302,74.218750
5303,74.218750
5304,74.218750
5305,74.218750
5306,74.218750
5307,70.312500
5308,74.218750
5309,70.312500
5310,70.312500
5311,74.218750
5312,70.312500
5313,70.312500
5314,70.312500
5315,70.312500
5316,70.312500
5317,70.312500
5318,70.312500
5319,70.312500
5320,70.312500
5321,70.312500
5322,70.312500
5323,66.406250
5324,70.312500
5325,70.312500
5326,70.312500
5327,70.312500
5328,70.312500
5329,70.312500
5330,70.312500
5331,70.312500
5332,70.312500
5333,70.312500
5334,70.312500
5335,66.406250
5336,66.406250
5337,66.406250
5338,66.406250
5339,66.406250
5340,66.406250
5341,66.406250
5342,66.406250
5343,66.406250
5344,66.406250
5345,66.406250
5346,62.500000
5347,66.406250
5348,66.406250
5349,66.406250
5350,62.500000
5351,62.500000
5352,62.500000
5353,62.500000
5354,62.500000
5355,62.500000
5356,62.500000
5357,62.500000
5358,62.500000
5359,62.500000
5360,62.500000
5361,62.500000
5362,62.500000
5363,62.500000
5364,62.500000
5365,62.500000
5366,62.500000
5367,58.593750
5368,58.593750
5369,58.593750
5370,58.593750
5371,58.593750
5372,58.593750
5373,58.593750
5374,58.593750
5375,58.593750
5376,58.593750
5377,58.593750
5378,54.687500
5379,54.687500
5380,54.687500
5381,54.687500
5382,54.687500
5383,54.687500
5384,54.687500
5385,54.687500
5386,54.687500
5387,54.687500
5388,54.687500
5389,50.781250
5390,54.687500
5391,50.781250
5392,50.781250
5393,50.781250
5394,50.781250
5395,50.781250
5396,50.781250
5397,50.781250
5398,50.781250
5399,46.875000
5400,46.875000
5401,46.875000
5402,46.875000
5403,46.875000
5404,46.875000
5405,46.875000
5406,46.875000
5407,46.875000
5408,42.968750
5409,42.968750
5410,42.968750
5411,42.968750
5412,42.968750
5413,42.968750
5414,42.968750
5415,42.968750
5416,42.968750
5417,42.968750
5418,42.968750
5419,39.062500
5420,39.062500
5421,39.062500
5422,39.062500
5423,39.062500
5424,39.062500
5425,39.062500
5426,39.062500
5427,39.062500
5428,39.062500
5429,35.156250
5430,35.156250
5431,35.156250
5432,35.156250
5433,35.156250
5434,35.156250
5435,35.156250
5436,35.156250
5437,35.156250
5438,31.250000
5439,31.250000
5440,31.250000
5441,31.250000
5442,31.250000
5443,31.250000
5444,31.250000
5445,31.250000
5446,27.343750
5447,27.343750
5448,27.343750
5449,27.343750
5450,27.343750
5451,27.343750
5452,27.343750
5453,23.437500
5454,23.437500
5455,23.437500
5456,23.437500
5457,23.437500
5458,23.437500
5459,23.437500
5460,19.531250
5461,19.531250
5462,19.531250
5463,19.531250
5464,19.531250
5465,19.531250
5466,19.531250
5467,19.531250
5468,15.625000
5469,15.625000
5470,15.625000
5471,15.625000
5472,15.625000
5473,15.625000
5474,15.625000
5475,15.625000
5476,11.718750
5477,11.718750
5478,11.718750
5479,11.718750
5480,11.718750
5481,11.718750
5482,7.812500
5483,7.812500
5484,7.812500
5485,7.812500
5486,7.812500
5487,7.812500
5488,7.812500
5489,7.812500
5490,7.812500
5491,3.906250
5492,3.906250
5493,3.906250
5494,3.906250
5495,3.906250
5496,0.000000
5497,0.000000
5498,0.000000
5499,0.000000
5500,0.000000
5501,0.000000
5502,0.000000
5503,0.000000
5504,-3.906250
5505,-3.906250
5506,-3.906250
5507,-3.906250
5508,-3.906250
5509,-3.906250
5510,-7.812500
5511,-7.812500
5512,-7.812500
5513,-7.812500
5514,-7.812500
5515,-7.812500
5516,-7.812500
5517,-7.812500
5518,-11.718750
5519,-11.718750
5520,-11.718750
5521,-11.718750
5522,-11.718750
5523,-15.625000
5524,-11.718750
5525,-15.625000
5526,-15.625000
5527,-15.625000
5528,-15.625000
5529,-15.625000
5530,-19.531250
5531,-19.531250
5532,-19.531250
5533,-19.531250
5534,-19.531250
5535,-19.531250
5536,-19.531250
5537,-23.437500
5538,-23.437500
5539,-23.437500
5540,-23.437500
5541,-23.437500
5542,-23.437500
5543,-23.437500
5544,-23.437500
5545,-27.343750
5546,-27.343750
5547,-27.343750
5548,-27.343750
5549,-27.343750
5550,-27.343750
5551,-27.343750
5552,-31.250000
5553,-31.250000
5554,-31.250000
5555,-31.250000
5556,-31.250000
5557,-31.250000
5558,-31.250000
5559,-35.156250
5560,-35.156250
5561,-35.156250
5562,-35.156250
5563,-35.156250
5564,-35.156250
5565,-39.062500
5566,-35.156250
5567,-39.062500
5568,-39.062500
5569,-39.062500
5570,-39.062500
5571,-39.062500
5572,-39.062500
5573,-39.062500
5574,-42.968750
5575,-42.968750
5576,-42.968750
5577,-42.968750
5578,-42.968750
5579,-42.968750
5580,-46.875000
5581,-46.875000
5582,-46.875000
5583,-46.875000
5584,-46.875000
5585,-46.875000
5586,-46.875000
5587,-46.875000
5588,-50.781250
5589,-50.781250
5590,-50.781250
5591,-50.781250
5592,-50.781250
5593,-50.781250
5594,-54.687500
5595,-54.687500
5596,-54.687500
5597,-54.687500
5598,-54.687500
5599,-54.687500
5600,-54.687500
5601,-54.687500
5602,-58.593750
5603,-58.593750
5604,-58.593750
5605,-58.593750
5606,-58.593750
5607,-58.593750
5608,-58.593750
5609,-62.500000
5610,-62.500000
5611,-62.500000
5612,-62.500000
5613,-62.500000
5614,-62.500000
5615,-62.500000
5616,-62.500000
5617,-66.406250
5618,-66.406250
5619,-66.406250
5620,-66.406250
5621,-66.406250
5622,-66.406250
5623,-66.406250
5624,-66.406250
5625,-70.312500
5626,-70.312500
5627,-70.312500
5628,-70.312500
5629,-70.312500
5630,-70.312500
5631,-70.312500
5632,-70.312500
5633,-70.312500
5634,-74.218750
5635,-74.218750
5636,-74.218750
5637,-74.218750
5638,-74.218750
5639,-74.218750
5640,-74.218750
5641,-78.125000
5642,-74.218750
5643,-78.125000
5644,-78.125000
5645,-78.125000
5646,-78.125000
5647,-78.125000
5648,-78.125000
5649,-78.125000
5650,-82.031250
5651,-82.031250
5652,-82.031250
5653,-82.031250
5654,-82.031250
5655,-82.031250
5656,-82.031250
5657,-82.031250
5658,-82.031250
5659,-82.031250
5660,-82.031250
5661,-85.937500
5662,-85.937500
5663,-85.937500
5664,-85.937500
5665,-85.937500
5666,-85.937500
5667,-85.937500
5668,-85.937500
5669,-85.937500
5670,-89.843750
5671,-89.843750
5672,-89.843750
5673,-89.843750
5674,-89.843750
5675,-89.843750
5676,-89.843750
5677,-89.843750
5678,-89.843750
5679,-93.750000
5680,-89.843750
5681,-93.750000
5682,-93.750000
5683,-93.750000
5684,-93.750000
5685,-93.750000
5686,-93.750000
5687,-93.750000
5688,-93.750000
5689,-93.750000
5690,-93.750000
5691,-93.750000
5692,-93.750000
5693,-93.750000
5694,-93.750000
5695,-97.656250
5696,-97.656250
5697,-97.656250
5698,-97.656250
5699,-97.656250
5700,-97.656250
5701,-97.656250
5702,-97.656250
5703,-97.656250
5704,-97.656250
5705,-97.656250
5706,-97.656250
5707,-97.656250
5708,-97.656250
5709,-97.656250
5710,-97.656250
5711,-97.656250
5712,-101.562500
5713,-101.562500
5714,-101.562500
5715,-101.562500
5716,-105.468750
5717,-101.562500
5718,-101.562500
5719,-101.562500
5720,-101.562500
5721,-101.562500
5722,-101.562500
5723,-101.562500
5724,-101.562500
5725,-101.562500
5726,-101.562500
5727,-101.562500
5728,-101.562500
5729,-101.562500
5730,-101.562500
5731,-101.562500
5732,-101.562500
5733,-101.562500
5734,-101.562500
5735,-105.468750
5736,-105.468750
5737,-105.468750
5738,-105.468750
5739,-105.468750
5740,-105.468750
5741,-105.468750
5742,-105.468750
5743,-105.468750
5744,-105.468750
5745,-105.468750
5746,-105.468750
5747,-105.468750
5748,-105.468750
5749,-105.468750
5750,-105.468750
5751,-105.468750
5752,-105.468750
5753,-105.468750
5754,-105.468750
5755,-105.468750
5756,-105.468750
5757,-105.468750
5758,-105.468750
5759,-105.468750
5760,-105.468750
5761,-105.468750
5762,-105.468750
5763,-105.468750
5764,-105.468750
5765,-105.468750
5766,-105.468750
5767,-105.468750
5768,-105.468750
5769,-105.468750
5770,-105.468750
5771,-105.468750
5772,-105.468750
5773,-105.468750
5774,-105.468750
5775,-105.468750
5776,-105.468750
5777,-105.468750
5778,-105.468750
5779,-105.468750
5780,-105.468750
5781,-105.468750
5782,-105.468750
5783,-105.468750
5784,-105.468750
5785,-105.468750
5786,-105.468750
5787,-105.468750
5788,-105.468750
5789,-105.468750
5790,-105.468750
5791,-105.468750
5792,-105.468750
5793,-105.468750
5794,-105.468750
5795,-105.468750
5796,-105.468750
5797,-105.468750
5798,-105.468750
5799,-101.562500
5800,-101.562500
5801,-101.562500
5802,-105.468750
5803,-105.468750
5804,-105.468750
5805,-105.468750
5806,-101.562500
5807,-101.562500
5808,-101.562500
5809,-101.562500
5810,-101.562500
5811,-101.562500
5812,-101.562500
5813,-101.562500
5814,-101.562500
5815,-101.562500
5816,-101.562500
5817,-101.562500
5818,-101.562500
5819,-101.562500
5820,-101.562500
5821,-101.562500
5822,-101.562500
5823,-101.562500
5824,-101.562500
5825,-101.562500
5826,-97.656250
5827,-97.656250
5828,-97.656250
5829,-97.656250
5830,-97.656250
5831,-97.656250
5832,-97.656250
5833,-97.656250
5834,-97.656250
5835,-97.656250
5836,-97.656250
5837,-97.656250
5838,-97.656250
5839,-97.656250
5840,-93.750000
5841,-93.750000
5842,-93.750000
5843,-93.750000
5844,-93.750000
5845,-93.750000
5846,-93.750000
5847,-93.750000
5848,-93.750000
5849,-93.750000
5850,-93.750000
5851,-93.750000
5852,-89.843750
5853,-89.843750
5854,-89.843750
5855,-89.843750
5856,-89.843750
5857,-89.843750
5858,-89.843750
5859,-89.843750
5860,-89.843750
5861,-89.843750
5862,-89.843750
5863,-89.843750
5864,-85.937500
5865,-85.937500
5866,-85.937500
5867,-85.937500
5868,-85.937500
5869,-85.937500
5870,-85.937500
5871,-85.937500
5872,-85.937500
5873,-85.937500
5874,-82.031250
5875,-82.031250
5876,-82.031250
5877,-82.031250
5878,-82.031250
5879,-82.031250
5880,-82.031250
5881,-82.031250
5882,-78.125000
5883,-78.125000
5884,-78.125000
5885,-82.031250
5886,-78.125000
5887,-78.125000
5888,-78.125000
5889,-78.125000
5890,-78.125000
5891,-78.125000
5892,-78.125000
5893,-74.218750
5894,-74.218750
5895,-74.218750
5896,-74.218750
5897,-74.218750
5898,-74.218750
5899,-74.218750
5900,-74.218750
5901,-74.218750
5902,-74.218750
5903,-70.312500
5904,-70.312500
5905,-70.312500
5906,-70.312500
5907,-70.312500
5908,-70.312500
5909,-70.312500
5910,-66.406250
5911,-66.406250
5912,-66.406250
5913,-66.406250
5914,-66.406250
5915,-66.406250
5916,-66.406250
5917,-62.500000
5918,-62.500000
5919,-62.500000
5920,-62.500000
5921,-62.500000
5922,-62.500000
5923,-62.500000
5924,-62.500000
5925,-62.500000
5926,-58.593750
5927,-58.593750
5928,-58.593750
5929,-58.593750
5930,-58.593750
5931,-58.593750
5932,-58.593750
5933,-54.687500
5934,-54.687500
5935,-54.687500
5936,-54.687500
5937,-54.687500
5938,-54.687500
5939,-54.687500
5940,-50.781250
5941,-50.781250
5942,-50.781250
5943,-50.781250
5944,-50.781250
5945,-50.781250
5946,-50.781250
5947,-50.781250
5948,-46.875000
5949,-46.875000
5950,-46.875000
5951,-46.875000
5952,-46.875000
5953,-46.875000
5954,-46.875000
5955,-42.968750
5956,-42.968750
5957,-42.968750
5958,-42.968750
5959,-42.968750
5960,-42.968750
5961,-42.968750
5962,-39.062500
5963,-39.062500
5964,-39.062500
5965,-39.062500
5966,-39.062500
5967,-39.062500
5968,-35.156250
5969,-35.156250
5970,-35.156250
5971,-35.156250
5972,-35.156250
5973,-35.156250
5974,-31.250000
5975,-31.250000
5976,-31.250000
5977,-31.250000
5978,-31.250000
5979,-31.250000
5980,-31.250000
5981,-31.250000
5982,-31.250000
5983,-27.343750
5984,-27.343750
5985,-27.343750
5986,-27.343750
5987,-27.343750
5988,-27.343750
5989,-23.437500
5990,-23.437500
5991,-23.437500
5992,-23.437500
5993,-23.437500
5994,-23.437500
5995,-19.531250
5996,-19.531250
5997,-19.531250
5998,-19.531250
5999,-19.531250
6000,-19.531250
6001,-19.531250
6002,-15.625000
6003,-19.531250
6004,-15.625000
6005,-15.625000
6006,-15.625000
6007,-15.625000
6008,-11.718750
6009,-15.625000
6010,-11.718750
6011,-11.718750
6012,-11.718750
6013,-11.718750
6014,-11.718750
6015,-7.812500
6016,-7.812500
6017,-7.812500
6018,-7.812500
6019,-7.812500
6020,-7.812500
6021,-3.906250
6022,-3.906250
6023,-3.906250
6024,-3.906250
6025,-3.906250
6026,-3.906250
6027,-3.906250
6028,0.000000
6029,0.000000
6030,0.000000
6031,0.000000
6032,0.000000
6033,0.000000
6034,0.000000
6035,0.000000
6036,3.906250
6037,3.906250
6038,3.906250
6039,3.906250
6040,3.906250
6041,3.906250
6042,3.906250
6043,3.906250
6044,7.812500
6045,7.812500
6046,7.812500
6047,7.812500
6048,7.812500
6049,11.718750
6050,11.718750
6051,11.718750
6052,11.718750
6053,11.718750
6054,11.718750
6055,11.718750
6056,11.718750
6057,15.625000
6058,15.625000
6059,15.625000
6060,15.625000
6061,15.625000
6062,15.625000
6063,15.625000
6064,19.531250
6065,15.625000
6066,19.531250
6067,19.531250
6068,19.531250
6069,19.531250
6070,19.531250
6071,19.531250
6072,19.531250
6073,23.437500
6074,23.437500
6075,23.437500
6076,23.437500
6077,23.437500
6078,23.437500
6079,23.437500
6080,27.343750
6081,27.343750
6082,27.343750
6083,27.343750
6084,27.343750
6085,27.343750
6086,27.343750
6087,27.343750
6088,31.250000
6089,31.250000
6090,31.250000
6091,31.250000
6092,31.250000
6093,31.250000
6094,31.250000
6095,35.156250
6096,35.156250
6097,35.156250
6098,35.156250
6099,35.156250
6100,35.156250
6101,35.156250
6102,35.156250
6103,35.156250
6104,39.062500
6105,39.062500
6106,39.062500
6107,39.062500
6108,39.062500
6109,39.062500
6110,39.062500
6111,39.062500
6112,39.062500
6113,42.968750
6114,42.968750
6115,42.968750
6116,42.968750
6117,42.968750
6118,42.968750
6119,42.968750
6120,42.968750
6121,42.968750
6122,46.875000
6123,46.875000
6124,46.875000
6125,46.875000
6126,46.875000
6127,46.875000
6128,46.875000
6129,46.875000
6130,50.781250
6131,50.781250
6132,50.781250
6133,50.781250
6134,50.781250
6135,50.781250
6136,50.781250
6137,50.781250
6138,50.781250
6139,54.687500
6140,54.687500
6141,50.781250
6142,54.687500
6143,54.687500
6144,54.687500
6145,54.687500
6146,54.687500
6147,54.687500
6148,54.687500
6149,54.687500
6150,54.687500
6151,54.687500
6152,58.593750
6153,58.593750
6154,58.593750
6155,58.593750
6156,58.593750
6157,58.593750
6158,58.593750
6159,58.593750
6160,58.593750
6161,58.593750
6162,58.593750
6163,58.593750
6164,58.593750
6165,58.593750
6166,58.593750
6167,58.593750
6168,62.500000
6169,62.500000
6170,62.500000
6171,62.500000
6172,62.500000
6173,62.500000
6174,62.500000
6175,62.500000
6176,62.500000
6177,62.500000
6178,62.500000
6179,66.406250
6180,66.406250
6181,66.406250
6182,66.406250
6183,66.406250
6184,66.406250
6185,66.406250
6186,66.406250
6187,66.406250
6188,66.406250
6189,66.406250
6190,66.406250
6191,66.406250
6192,66.406250
6193,66.406250
6194,66.406250
6195,66.406250
6196,66.406250
6197,66.406250
6198,66.406250
6199,70.312500
6200,70.312500
6201,70.312500
6202,70.312500
6203,70.312500
6204,70.312500
6205,70.312500
6206,70.312500
6207,70.312500
6208,70.312500
6209,70.312500
6210,70.312500
6211,70.312500
6212,70.312500
6213,70.312500
6214,70.312500
6215,70.312500
6216,70.312500
6217,70.312500
6218,70.312500
6219,70.312500
6220,70.312500
6221,74.218750
6222,70.312500
6223,74.218750
6224,74.218750
6225,74.218750
6226,74.218750
6227,74.218750
6228,74.218750
6229,74.218750
6230,74.218750
6231,74.218750
6232,74.218750
6233,74.218750
6234,74.218750
6235,74.218750
6236,74.218750
6237,74.218750
6238,74.218750
6239,74.218750
6240,74.218750
6241,74.218750
6242,74.218750
6243,74.218750
6244,74.218750
6245,74.218750
6246,74.218750
6247,74.218750
6248,74.218750
6249,74.218750
6250,74.218750
6251,74.218750
6252,74.218750
6253,74.218750
6254,74.218750
6255,74.218750
6256,74.218750
6257,74.218750
6258,74.218750
6259,74.218750
6260,74.218750
6261,74.218750
6262,74.218750
6263,74.218750
6264,74.218750
6265,74.218750
6266,74.218750
6267,74.218750
6268,74.218750
6269,74.218750
6270,74.218750
6271,74.218750
6272,74.218750
6273,74.218750
6274,74.218750
6275,74.218750
6276,74.218750
6277,74.218750
6278,74.218750
6279,74.218750
6280,74.218750
6281,74.218750
6282,74.218750
6283,74.218750
6284,74.218750
6285,74.218750
6286,74.218750
6287,74.218750
6288,74.218750
6289,74.218750
6290,74.218750
6291,74.218750
6292,74.218750
6293,74.218750
6294,74.218750
6295,74.218750
6296,70.312500
6297,70.312500
6298,74.218750
6299,70.312500
6300,70.312500
6301,70.312500
6302,70.312500
6303,70.312500
6304,70.312500
6305,70.312500
6306,70.312500
6307,70.312500
6308,70.312500
6309,70.312500
6310,70.312500
6311,70.312500
6312,70.312500
6313,70.312500
6314,70.312500
6315,70.312500
6316,70.312500
6317,70.312500
6318,70.312500
6319,70.312500
6320,70.312500
6321,66.406250
6322,70.312500
6323,66.406250
6324,70.312500
6325,66.406250
6326,66.406250
6327,66.406250
6328,66.406250
6329,66.406250
6330,66.406250
6331,66.406250
6332,66.406250
6333,66.406250
6334,66.406250
6335,66.406250
6336,66.406250
6337,66.406250
6338,66.406250
6339,62.500000
6340,62.500000
6341,62.500000
6342,62.500000
6343,62.500000
6344,62.500000
6345,62.500000
6346,62.500000
6347,62.500000
6348,62.500000
6349,62.500000
6350,62.500000
6351,62.500000
6352,62.500000
6353,62.500000
6354,62.500000
6355,58.593750
6356,58.593750
6357,58.593750
6358,58.593750
6359,58.593750
6360,58.593750
6361,58.593750
6362,58.593750
6363,58.593750
6364,58.593750
6365,58.593750
6366,54.687500
6367,58.593750
6368,54.687500
6369,54.687500
6370,54.687500
6371,54.687500
6372,54.687500
6373,54.687500
6374,54.687500
6375,54.687500
6376,54.687500
6377,54.687500
6378,50.781250
6379,50.781250
6380,54.687500
6381,50.781250
6382,50.781250
6383,50.781250
6384,50.781250
6385,50.781250
6386,50.781250
6387,50.781250
6388,50.781250
6389,50.781250
6390,50.781250
6391,46.875000
6392,46.875000
6393,46.875000
6394,46.875000
6395,46.875000
6396,46.875000
6397,46.875000
6398,46.875000
6399,42.968750
6400,42.968750
6401,46.875000
6402,42.968750
6403,42.968750
6404,42.968750
6405,42.968750
6406,42.968750
6407,42.968750
6408,42.968750
6409,39.062500
6410,42.968750
6411,39.062500
6412,39.062500
6413,42.968750
6414,39.062500
6415,39.062500
6416,39.062500
6417,35.156250
6418,39.062500
6419,35.156250
6420,35.156250
6421,35.156250
6422,35.156250
6423,35.156250
6424,35.156250
6425,35.156250
6426,35.156250
6427,31.250000
6428,31.250000
6429,31.250000
6430,31.250000
6431,31.250000
6432,31.250000
6433,31.250000
6434,31.250000
6435,27.343750
6436,27.343750
6437,27.343750
6438,27.343750
6439,27.343750
6440,27.343750
6441,27.343750
6442,27.343750
6443,23.437500
6444,23.437500
6445,23.437500
6446,23.437500
6447,23.437500
6448,23.437500
6449,23.437500
6450,19.531250
6451,23.437500
6452,19.531250
6453,19.531250
6454,19.531250
6455,19.531250
6456,15.625000
6457,19.531250
6458,15.625000
6459,15.625000
6460,15.625000
6461,15.625000
6462,15.625000
6463,15.625000
6464,15.625000
6465,11.718750
6466,11.718750
6467,11.718750
6468,11.718750
6469,11.718750
6470,11.718750
6471,11.718750
6472,7.812500
6473,7.812500
6474,7.812500
6475,7.812500
6476,7.812500
6477,7.812500
6478,3.906250
6479,3.906250
6480,3.906250
6481,3.906250
6482,3.906250
6483,3.906250
6484,3.906250
6485,3.906250
6486,3.906250
6487,0.000000
6488,0.000000
6489,0.000000
6490,0.000000
6491,0.000000
6492,0.000000
6493,0.000000
6494,-3.906250
6495,-3.906250
6496,-3.906250
6497,-3.906250
6498,-3.906250
6499,-3.906250
6500,-3.906250
6501,-7.812500
6502,-7.812500
6503,-7.812500
6504,-7.812500
6505,-7.812500
6506,-7.812500
6507,-7.812500
6508,-11.718750
6509,-11.718750
6510,-11.718750
6511,-11.718750
6512,-11.718750
6513,-11.718750
6514,-11.718750
6515,-11.718750
6516,-15.625000
6517,-15.625000
6518,-15.625000
6519,-15.625000
6520,-15.625000
6521,-15.625000
6522,-19.531250
6523,-19.531250
6524,-19.531250
6525,-19.531250
6526,-19.531250
6527,-19.531250
6528,-23.437500
6529,-23.437500
6530,-23.437500
6531,-23.437500
6532,-23.437500
6533,-23.437500
6534,-23.437500
6535,-23.437500
6536,-27.343750
6537,-27.343750
6538,-27.343750
6539,-27.343750
6540,-27.343750
6541,-27.343750
6542,-31.250000
6543,-31.250000
6544,-31.250000
6545,-31.250000
6546,-31.250000
6547,-31.250000
6548,-31.250000
6549,-35.156250
6550,-35.156250
6551,-35.156250
6552,-35.156250
6553,-35.156250
6554,-35.156250
6555,-35.156250
6556,-39.062500
6557,-39.062500
6558,-39.062500
6559,-39.062500
6560,-39.062500
6561,-39.062500
6562,-42.968750
6563,-42.968750
6564,-42.968750
6565,-42.968750
6566,-42.968750
6567,-42.968750
6568,-42.968750
6569,-46.875000
6570,-46.875000
6571,-46.875000
6572,-46.875000
6573,-46.875000
6574,-46.875000
6575,-46.875000
6576,-50.781250
6577,-50.781250
6578,-50.781250
6579,-50.781250
6580,-50.781250
6581,-50.781250
6582,-50.781250
6583,-50.781250
6584,-54.687500
6585,-54.687500
6586,-54.687500
6587,-54.687500
6588,-54.687500
6589,-54.687500
6590,-54.687500
6591,-58.593750
6592,-58.593750
6593,-58.593750
6594,-58.593750
6595,-58.593750
6596,-58.593750
6597,-58.593750
6598,-58.593750
6599,-62.500000
6600,-62.500000
6601,-62.500000
6602,-62.500000
6603,-62.500000
6604,-62.500000
6605,-62.500000
6606,-62.500000
6607,-66.406250
6608,-66.406250
6609,-66.406250
6610,-66.406250
6611,-66.406250
6612,-66.406250
6613,-66.406250
6614,-66.406250
6615,-70.312500
6616,-70.312500
6617,-70.312500
6618,-70.312500
6619,-70.312500
6620,-70.312500
6621,-70.312500
6622,-70.312500
6623,-70.312500
6624,-74.218750
6625,-74.218750
6626,-74.218750
6627,-74.218750
6628,-74.218750
6629,-74.218750
6630,-74.218750
6631,-78.125000
6632,-78.125000
6633,-78.125000
6634,-78.125000
6635,-78.125000
6636,-78.125000
6637,-78.125000
6638,-78.125000
6639,-78.125000
6640,-78.125000
6641,-82.031250
6642,-82.031250
6643,-82.031250
6644,-82.031250
6645,-82.031250
6646,-82.031250
6647,-82.031250
6648,-82.031250
6649,-82.031250
6650,-82.031250
6651,-85.937500
6652,-85.937500
6653,-85.937500
6654,-85.937500
6655,-85.937500
6656,-85.937500
6657,-85.937500
6658,-85.937500
6659,-85.937500
6660,-85.937500
6661,-89.843750
6662,-89.843750
6663,-89.843750
6664,-89.843750
6665,-89.843750
6666,-89.843750
6667,-89.843750
6668,-89.843750
6669,-89.843750
6670,-89.843750
6671,-89.843750
6672,-93.750000
6673,-93.750000
6674,-93.750000
6675,-93.750000
6676,-93.750000
6677,-93.750000
6678,-93.750000
6679,-93.750000
6680,-93.750000
6681,-93.750000
6682,-93.750000
6683,-93.750000
6684,-93.750000
6685,-97.656250
6686,-97.656250
6687,-97.656250
6688,-97.656250
6689,-97.656250
6690,-97.656250
6691,-97.656250
6692,-97.656250
6693,-97.656250
6694,-97.656250
6695,-97.656250
6696,-97.656250
6697,-97.656250
6698,-97.656250
6699,-101.562500
6700,-101.562500
6701,-101.562500
6702,-101.562500
6703,-101.562500
6704,-101.562500
6705,-101.562500
6706,-101.562500
6707,-101.562500
6708,-101.562500
6709,-101.562500
6710,-101.562500
6711,-101.562500
6712,-101.562500
6713,-101.562500
6714,-101.562500
6715,-101.562500
6716,-101.562500
6717,-101.562500
6718,-101.562500
6719,-105.468750
6720,-105.468750
6721,-105.468750
6722,-105.468750
6723,-105.468750
6724,-105.468750
6725,-105.468750
6726,-105.468750
6727,-105.468750
6728,-105.468750
6729,-105.468750
6730,-105.468750
6731,-105.468750
6732,-105.468750
6733,-105.468750
6734,-105.468750
6735,-105.468750
6736,-105.468750
6737,-105.468750
6738,-105.468750
6739,-105.468750
6740,-105.468750
6741,-105.468750
6742,-105.468750
6743,-105.468750
6744,-105.468750
6745,-105.468750
6746,-105.468750
6747,-105.468750
6748,-105.468750
6749,-105.468750
6750,-105.468750
6751,-105.468750
6752,-105.468750
6753,-105.468750
6754,-105.468750
6755,-105.468750
6756,-105.468750
6757,-105.468750
6758,-105.468750
6759,-105.468750
6760,-105.468750
6761,-105.468750
6762,-105.468750
6763,-105.468750
6764,-105.468750
6765,-105.468750
6766,-105.468750
6767,-105.468750
6768,-105.468750
6769,-105.468750
6770,-105.468750
6771,-105.468750
6772,-105.468750
6773,-105.468750
6774,-105.468750
6775,-105.468750
6776,-105.468750
6777,-105.468750
6778,-105.468750
6779,-105.468750
6780,-105.468750
6781,-105.468750
6782,-105.468750
6783,-105.468750
6784,-105.468750
6785,-105.468750
6786,-105.468750
6787,-105.468750
6788,-105.468750
6789,-105.468750
6790,-101.562500
6791,-101.562500
6792,-105.468750
6793,-101.562500
6794,-101.562500
6795,-101.562500
6796,-101.562500
6797,-101.562500
6798,-101.562500
6799,-101.562500
6800,-101.562500
6801,-101.562500
6802,-101.562500
6803,-101.562500
6804,-101.562500
6805,-101.562500
6806,-101.562500
6807,-101.562500
6808,-101.562500
6809,-101.562500
6810,-101.562500
6811,-97.656250
6812,-101.562500
6813,-97.656250
6814,-101.562500
6815,-101.562500
6816,-97.656250
6817,-97.656250
6818,-97.656250
6819,-97.656250
6820,-97.656250
6821,-97.656250
6822,-97.656250
6823,-97.656250
6824,-97.656250
6825,-97.656250
6826,-97.656250
6827,-97.656250
6828,-97.656250
6829,-97.656250
6830,-93.750000
6831,-93.750000
6832,-93.750000
6833,-93.750000
6834,-93.750000
6835,-93.750000
6836,-93.750000
6837,-93.750000
6838,-93.750000
6839,-93.750000
6840,-93.750000
6841,-93.750000
6842,-89.843750
6843,-89.843750
6844,-89.843750
6845,-89.843750
6846,-89.843750
6847,-89.843750
6848,-89.843750
6849,-89.843750
6850,-89.843750
6851,-89.843750
6852,-89.843750
6853,-89.843750
6854,-85.937500
6855,-85.937500
6856,-85.937500
6857,-85.937500
6858,-85.937500
6859,-85.937500
6860,-85.937500
6861,-85.937500
6862,-82.031250
6863,-82.031250
6864,-82.031250
6865,-82.031250
6866,-82.031250
6867,-82.031250
6868,-82.031250
6869,-82.031250
6870,-82.031250
6871,-82.031250
6872,-82.031250
6873,-82.031250
6874,-78.125000
6875,-78.125000
6876,-78.125000
6877,-78.125000
6878,-78.125000
6879,-78.125000
6880,-78.125000
6881,-78.125000
6882,-78.125000
6883,-78.125000
6884,-74.218750
6885,-74.218750
6886,-74.218750
6887,-74.218750
6888,-74.218750
6889,-74.218750
6890,-74.218750
6891,-70.312500
6892,-70.312500
6893,-70.312500
6894,-70.312500
6895,-70.312500
6896,-70.312500
6897,-70.312500
6898,-70.312500
6899,-70.312500
6900,-66.406250
6901,-66.406250
6902,-66.406250
6903,-66.406250
6904,-66.406250
6905,-66.406250
6906,-66.406250
6907,-66.406250
6908,-62.500000
6909,-62.500000
6910,-62.500000
6911,-62.500000
6912,-62.500000
6913,-62.500000
6914,-62.500000
6915,-62.500000
6916,-58.593750
6917,-58.593750
6918,-58.593750
6919,-58.593750
6920,-58.593750
6921,-54.687500
6922,-58.593750
6923,-54.687500
6924,-54.687500
6925,-54.687500
6926,-54.687500
6927,-54.687500
6928,-54.687500
6929,-50.781250
6930,-50.781250
6931,-50.781250
6932,-50.781250
6933,-50.781250
6934,-50.781250
6935,-50.781250
6936,-50.781250
6937,-46.875000
6938,-46.875000
6939,-46.875000
6940,-46.875000
6941,-46.875000
6942,-46.875000
6943,-46.875000
6944,-42.968750
6945,-42.968750
6946,-42.968750
6947,-42.968750
6948,-42.968750
6949,-42.968750
6950,-42.968750
6951,-42.968750
6952,-39.062500
6953,-39.062500
6954,-39.062500
6955,-39.062500
6956,-39.062500
6957,-39.062500
6958,-35.156250
6959,-35.156250
6960,-35.156250
6961,-35.156250
6962,-35.156250
6963,-35.156250
6964,-31.250000
6965,-31.250000
6966,-31.250000
6967,-31.250000
6968,-31.250000
6969,-31.250000
6970,-31.250000
6971,-31.250000
6972,-27.343750
6973,-27.343750
6974,-27.343750
6975,-27.343750
6976,-27.343750
6977,-23.437500
6978,-27.343750
6979,-23.437500
6980,-23.437500
6981,-23.437500
6982,-23.437500
6983,-23.437500
6984,-19.531250
6985,-19.531250
6986,-19.531250
6987,-19.531250
6988,-19.531250
6989,-19.531250
6990,-19.531250
6991,-19.531250
6992,-15.625000
6993,-15.625000
6994,-15.625000
6995,-15.625000
6996,-15.625000
6997,-15.625000
6998,-15.625000
6999,-11.718750
7000,-11.718750
7001,-11.718750
7002,-11.718750
7003,-11.718750
7004,-7.812500
7005,-7.812500
7006,-7.812500
7007,-7.812500
7008,-7.812500
7009,-7.812500
7010,-7.812500
7011,-3.906250
7012,-3.906250
7013,-3.906250
7014,-3.906250
7015,-3.906250
7016,-3.906250
7017,-3.906250
7018,0.000000
7019,0.000000
7020,0.000000
7021,0.000000
7022,0.000000
7023,0.000000
7024,0.000000
7025,3.906250
7026,3.906250
7027,3.906250
7028,3.906250
7029,3.906250
7030,3.906250
7031,7.812500
7032,7.812500
7033,7.812500
7034,7.812500
7035,7.812500
7036,7.812500
7037,7.812500
7038,7.812500
7039,11.718750
7040,11.718750
7041,11.718750
7042,11.718750
7043,11.718750
7044,11.718750
7045,11.718750
7046,15.625000
7047,15.625000
7048,15.625000
7049,15.625000
7050,15.625000
7051,15.625000
7052,19.531250
7053,19.531250
7054,19.531250
7055,19.531250
7056,19.531250
7057,19.531250
7058,19.531250
7059,19.531250
7060,23.437500
7061,23.437500
7062,23.437500
7063,23.437500
7064,23.437500
7065,23.437500
7066,23.437500
7067,23.437500
7068,23.437500
7069,27.343750
7070,27.343750
7071,27.343750
7072,27.343750
7073,27.343750
7074,27.343750
7075,27.343750
7076,31.250000
7077,31.250000
7078,31.250000
7079,31.250000
7080,31.250000
7081,31.250000
7082,31.250000
7083,31.250000
7084,31.250000
7085,31.250000
7086,35.156250
7087,35.156250
7088,35.156250
7089,35.156250
7090,35.156250
7091,35.156250
7092,35.156250
7093,39.062500
7094,35.156250
7095,39.062500
7096,39.062500
7097,39.062500
7098,39.062500
7099,39.062500
7100,39.062500
7101,39.062500
7102,42.968750
7103,42.968750
7104,42.968750
7105,42.968750
7106,42.968750
7107,42.968750
7108,42.968750
7109,42.968750
7110,42.968750
7111,42.968750
7112,42.968750
7113,46.875000
7114,46.875000
7115,46.875000
7116,46.875000
7117,46.875000
7118,46.875000
7119,46.875000
7120,46.875000
7121,50.781250
7122,50.781250
7123,50.781250
7124,50.781250
7125,50.781250
7126,50.781250
7127,50.781250
7128,50.781250
7129,50.781250
7130,50.781250
7131,50.781250
7132,50.781250
7133,54.687500
7134,54.687500
7135,54.687500
7136,54.687500
7137,54.687500
7138,54.687500
7139,54.687500
7140,54.687500
7141,54.687500
7142,58.593750
7143,58.593750
7144,58.593750
7145,58.593750
7146,58.593750
7147,58.593750
7148,58.593750
7149,58.593750
7150,58.593750
7151,58.593750
7152,58.593750
7153,58.593750
7154,62.500000
7155,62.500000
7156,62.500000
7157,62.500000
7158,62.500000
7159,62.500000
7160,62.500000
7161,62.500000
7162,62.500000
7163,62.500000
7164,62.500000
7165,62.500000
7166,62.500000
7167,62.500000
7168,62.500000
7169,66.406250
7170,66.406250
7171,66.406250
7172,66.406250
7173,66.406250
7174,66.406250
7175,66.406250
7176,66.406250
7177,66.406250
7178,66.406250
7179,66.406250
7180,66.406250
7181,66.406250
7182,66.406250
7183,66.406250
7184,66.406250
7185,66.406250
7186,66.406250
7187,66.406250
7188,66.406250
7189,70.312500
7190,70.312500
7191,70.312500
7192,70.312500
7193,70.312500
7194,70.312500
7195,70.312500
7196,70.312500
7197,70.312500
7198,70.312500
7199,70.312500
7200,70.312500
7201,70.312500
7202,70.312500
7203,70.312500
7204,70.312500
7205,70.312500
7206,70.312500
7207,70.312500
7208,70.312500
7209,70.312500
7210,70.312500
7211,70.312500
7212,70.312500
7213,70.312500
7214,74.218750
7215,74.218750
7216,74.218750
7217,70.312500
7218,70.312500
7219,74.218750
7220,74.218750
7221,74.218750
7222,74.218750
7223,74.218750
7224,74.218750
7225,74.218750
7226,74.218750
7227,74.218750
7228,74.218750
7229,74.218750
7230,74.218750
7231,74.218750
7232,74.218750
7233,74.218750
7234,74.218750
7235,74.218750
7236,74.218750
7237,74.218750
7238,74.218750
7239,74.218750
7240,74.218750
7241,74.218750
7242,74.218750
7243,74.218750
7244,74.218750
7245,74.218750
7246,74.218750
7247,74.218750
7248,74.218750
7249,74.218750
7250,74.218750
7251,74.218750
7252,74.218750
7253,74.218750
7254,74.218750
7255,74.218750
7256,74.218750
7257,74.218750
7258,74.218750
7259,74.218750
7260,74.218750
7261,74.218750
7262,74.218750
7263,74.218750
7264,74.218750
7265,74.218750
7266,74.218750
7267,74.218750
7268,74.218750
7269,74.218750
7270,74.218750
7271,74.218750
7272,74.218750
7273,74.218750
7274,74.218750
7275,74.218750
7276,74.218750
7277,74.218750
7278,74.218750
7279,74.218750
7280,74.218750
7281,74.218750
7282,74.218750
7283,74.218750
7284,74.218750
7285,74.218750
7286,74.218750
7287,74.218750
7288,74.218750
7289,70.312500
7290,70.312500
7291,70.312500
7292,70.312500
7293,70.312500
7294,70.312500
7295,70.312500
7296,70.312500
7297,70.312500
7298,70.312500
7299,70.312500
7300,70.312500
7301,70.312500
7302,70.312500
7303,70.312500
7304,70.312500
7305,70.312500
7306,70.312500
7307,70.312500
7308,70.312500
7309,70.312500
7310,70.312500
7311,70.312500
7312,70.312500
7313,70.312500
7314,66.406250
7315,66.406250
7316,66.406250
7317,66.406250
7318,66.406250
7319,66.406250
7320,66.406250
7321,66.406250
7322,66.406250
7323,66.406250
7324,66.406250
7325,66.406250
7326,66.406250
7327,66.406250
7328,66.406250
7329,62.500000
7330,62.500000
7331,62.500000
7332,62.500000
7333,62.500000
7334,62.500000
7335,62.500000
7336,62.500000
7337,62.500000
7338,62.500000
7339,62.500000
7340,62.500000
7341,62.500000
7342,62.500000
7343,62.500000
7344,62.500000
7345,58.593750
7346,58.593750
7347,58.593750
7348,58.593750
7349,58.593750
7350,58.593750
7351,58.593750
7352,58.593750
7353,58.593750
7354,58.593750
7355,58.593750
7356,58.593750
7357,54.687500
7358,54.687500
7359,54.687500
7360,54.687500
7361,54.687500
7362,54.687500
7363,54.687500
7364,54.687500
7365,54.687500
7366,54.687500
7367,54.687500
7368,50.781250
7369,50.781250
7370,50.781250
7371,50.781250
7372,50.781250
7373,50.781250
7374,50.781250
7375,50.781250
7376,50.781250
7377,50.781250
7378,50.781250
7379,46.875000
7380,46.875000
7381,46.875000
7382,46.875000
7383,46.875000
7384,46.875000
7385,46.875000
7386,46.875000
7387,46.875000
7388,46.875000
7389,46.875000
7390,46.875000
7391,42.968750
7392,42.968750
7393,42.968750
7394,42.968750
7395,42.968750
7396,42.968750
7397,42.968750
7398,39.062500
7399,39.062500
7400,39.062500
7401,39.062500
7402,39.062500
7403,39.062500
7404,39.062500
7405,39.062500
7406,39.062500
7407,39.062500
7408,39.062500
7409,39.062500
7410,35.156250
7411,35.156250
7412,35.156250
7413,35.156250
7414,35.156250
7415,35.156250
7416,35.156250
7417,31.250000
7418,31.250000
7419,31.250000
7420,31.250000
7421,31.250000
7422,31.250000
7423,31.250000
7424,31.250000
7425,27.343750
7426,27.343750
7427,27.343750
7428,27.343750
7429,27.343750
7430,27.343750
7431,27.343750
7432,27.343750
7433,23.437500
7434,23.437500
7435,23.437500
7436,23.437500
7437,23.437500
7438,23.437500
7439,23.437500
7440,23.437500
7441,19.531250
7442,19.531250
7443,19.531250
7444,19.531250
7445,19.531250
7446,19.531250
7447,19.531250
7448,19.531250
7449,15.625000
7450,15.625000
7451,15.625000
7452,15.625000
7453,15.625000
7454,11.718750
7455,11.718750
7456,11.718750
7457,11.718750
7458,11.718750
7459,11.718750
7460,11.718750
7461,11.718750
7462,11.718750
7463,7.812500
7464,7.812500
7465,7.812500
7466,7.812500
7467,7.812500
7468,7.812500
7469,3.906250
7470,3.906250
7471,3.906250
7472,3.906250
7473,3.906250
7474,3.906250
7475,3.906250
7476,3.906250
7477,0.000000
7478,0.000000
7479,0.000000
7480,0.000000
7481,0.000000
7482,0.000000
7483,0.000000
7484,-3.906250
7485,-3.906250
7486,-3.906250
7487,-3.906250
7488,-3.906250
7489,-7.812500
7490,-3.906250
7491,-7.812500
7492,-7.812500
7493,-7.812500
7494,-7.812500
7495,-7.812500
7496,-7.812500
7497,-11.718750
7498,-11.718750
7499,-11.718750
7500,-11.718750
7501,-11.718750
7502,-11.718750
7503,-11.718750
7504,-15.625000
7505,-15.625000
7506,-15.625000
7507,-15.625000
7508,-15.625000
7509,-15.625000
7510,-15.625000
7511,-19.531250
7512,-19.531250
7513,-19.531250
7514,-19.531250
7515,-19.531250
7516,-19.531250
7517,-19.531250
7518,-19.531250
7519,-23.437500
7520,-23.437500
7521,-23.437500
7522,-23.437500
7523,-23.437500
7524,-23.437500
7525,-23.437500
7526,-27.343750
7527,-27.343750
7528,-27.343750
7529,-27.343750
7530,-27.343750
7531,-27.343750
7532,-31.250000
7533,-31.250000
7534,-31.250000
7535,-31.250000
7536,-31.250000
7537,-31.250000
7538,-31.250000
7539,-35.156250
7540,-35.156250
7541,-35.156250
7542,-35.156250
7543,-35.156250
7544,-35.156250
7545,-35.156250
7546,-35.156250
7547,-39.062500
7548,-39.062500
7549,-39.062500
7550,-39.062500
7551,-39.062500
7552,-39.062500
7553,-42.968750
7554,-42.968750
7555,-42.968750
7556,-42.968750
7557,-42.968750
7558,-42.968750
7559,-42.968750
7560,-46.875000
7561,-46.875000
7562,-46.875000
7563,-46.875000
7564,-46.875000
7565,-46.875000
7566,-46.875000
7567,-50.781250
7568,-46.875000
7569,-50.781250
7570,-50.781250
7571,-50.781250
7572,-50.781250
7573,-54.687500
7574,-54.687500
7575,-54.687500
7576,-54.687500
7577,-54.687500
7578,-54.687500
7579,-54.687500
7580,-54.687500
7581,-54.687500
7582,-58.593750
7583,-58.593750
7584,-58.593750
7585,-58.593750
7586,-58.593750
7587,-58.593750
7588,-58.593750
7589,-62.500000
7590,-62.500000
7591,-62.500000
7592,-58.593750
7593,-62.500000
7594,-62.500000
7595,-62.500000
7596,-66.406250
7597,-66.406250
7598,-66.406250
7599,-66.406250
7600,-66.406250
7601,-66.406250
7602,-66.406250
7603,-66.406250
7604,-66.406250
7605,-70.312500
7606,-70.312500
7607,-70.312500
7608,-70.312500
7609,-70.312500
7610,-70.312500
7611,-70.312500
7612,-70.312500
7613,-74.218750
7614,-74.218750
7615,-74.218750
7616,-74.218750
7617,-74.218750
7618,-74.218750
7619,-74.218750
7620,-74.218750
7621,-74.218750
7622,-74.218750
7623,-78.125000
7624,-78.125000
7625,-78.125000
7626,-78.125000
7627,-78.125000
7628,-78.125000
7629,-78.125000
7630,-78.125000
7631,-82.031250
7632,-82.031250
7633,-82.031250
7634,-82.031250
7635,-82.031250
7636,-82.031250
7637,-82.031250
7638,-82.031250
7639,-82.031250
7640,-85.937500
7641,-85.937500
7642,-85.937500
7643,-82.031250
7644,-85.937500
7645,-85.937500
7646,-85.937500
7647,-85.937500
7648,-85.937500
7649,-85.937500
7650,-89.843750
7651,-89.843750
7652,-93.750000
7653,-89.843750
7654,-89.843750
7655,-89.843750
7656,-89.843750
7657,-89.843750
7658,-89.843750
7659,-89.843750
7660,-89.843750
7661,-89.843750
7662,-93.750000
7663,-93.750000
7664,-93.750000
7665,-93.750000
7666,-93.750000
7667,-93.750000
7668,-93.750000
7669,-93.750000
7670,-93.750000
7671,-93.750000
7672,-93.750000
7673,-93.750000
7674,-93.750000
7675,-93.750000
7676,-93.750000
7677,-93.750000
7678,-97.656250
7679,-97.656250
7680,-97.656250
7681,-97.656250
7682,-97.656250
7683,-97.656250
7684,-97.656250
7685,-97.656250
7686,-97.656250
7687,-97.656250
7688,-97.656250
7689,-97.656250
7690,-97.656250
7691,-97.656250
7692,-97.656250
7693,-101.562500
7694,-101.562500
7695,-101.562500
7696,-101.562500
7697,-101.562500
7698,-101.562500
7699,-101.562500
7700,-101.562500
7701,-101.562500
7702,-101.562500
7703,-101.562500
7704,-101.562500
7705,-101.562500
7706,-101.562500
7707,-101.562500
7708,-101.562500
7709,-101.562500
7710,-101.562500
7711,-101.562500
7712,-101.562500
7713,-105.468750
7714,-105.468750
7715,-101.562500
7716,-105.468750
7717,-105.468750
7718,-105.468750
7719,-105.468750
7720,-105.468750
7721,-105.468750
7722,-101.562500
7723,-105.468750
7724,-105.468750
7725,-101.562500
7726,-105.468750
7727,-105.468750
7728,-105.468750
7729,-105.468750
7730,-105.468750
7731,-105.468750
7732,-105.468750
7733,-105.468750
7734,-105.468750
7735,-105.468750
7736,-105.468750
7737,-105.468750
7738,-105.468750
7739,-105.468750
7740,-105.468750
7741,-105.468750
7742,-105.468750
7743,-105.468750
7744,-105.468750
7745,-105.468750
7746,-105.468750
7747,-105.468750
7748,-105.468750
7749,-105.468750
7750,-105.468750
7751,-105.468750
7752,-105.468750
7753,-105.468750
7754,-105.468750
7755,-105.468750
7756,-105.468750
7757,-105.468750
7758,-105.468750
7759,-105.468750
7760,-105.468750
7761,-105.468750
7762,-105.468750
7763,-105.468750
7764,-105.468750
7765,-105.468750
7766,-105.468750
7767,-105.468750
7768,-105.468750
7769,-105.468750
7770,-105.468750
7771,-105.468750
7772,-105.468750
7773,-105.468750
7774,-105.468750
7775,-105.468750
7776,-105.468750
7777,-105.468750
7778,-105.468750
7779,-105.468750
7780,-105.468750
7781,-105.468750
7782,-105.468750
7783,-105.468750
7784,-105.468750
7785,-101.562500
7786,-101.562500
7787,-101.562500
7788,-101.562500
7789,-101.562500
7790,-101.562500
7791,-101.562500
7792,-101.562500
7793,-101.562500
7794,-101.562500
7795,-101.562500
7796,-101.562500
7797,-101.562500
7798,-101.562500
7799,-101.562500
7800,-101.562500
7801,-101.562500
7802,-101.562500
7803,-101.562500
7804,-101.562500
7805,-101.562500
7806,-97.656250
7807,-97.656250
7808,-97.656250
7809,-97.656250
7810,-97.656250
7811,-97.656250
7812,-97.656250
7813,-97.656250
7814,-97.656250
7815,-97.656250
7816,-97.656250
7817,-97.656250
7818,-97.656250
7819,-93.750000
7820,-93.750000
7821,-93.750000
7822,-93.750000
7823,-93.750000
7824,-93.750000
7825,-93.750000
7826,-93.750000
7827,-93.750000
7828,-93.750000
7829,-93.750000
7830,-93.750000
7831,-93.750000
7832,-89.843750
7833,-89.843750
7834,-89.843750
7835,-89.843750
7836,-89.843750
7837,-89.843750
7838,-89.843750
7839,-89.843750
7840,-89.843750
7841,-89.843750
7842,-89.843750
7843,-89.843750
7844,-89.843750
7845,-89.843750
7846,-85.937500
7847,-85.937500
7848,-85.937500
7849,-85.937500
7850,-85.937500
7851,-85.937500
7852,-85.937500
7853,-85.937500
7854,-85.937500
7855,-82.031250
7856,-82.031250
7857,-82.031250
7858,-82.031250
7859,-82.031250
7860,-82.031250
7861,-82.031250
7862,-82.031250
7863,-82.031250
7864,-82.031250
7865,-82.031250
7866,-78.125000
7867,-78.125000
7868,-78.125000
7869,-78.125000
7870,-78.125000
7871,-78.125000
7872,-78.125000
7873,-78.125000
7874,-74.218750
7875,-74.218750
7876,-74.218750
7877,-74.218750
7878,-74.218750
7879,-74.218750
7880,-74.218750
7881,-74.218750
7882,-70.312500
7883,-70.312500
7884,-70.312500
7885,-70.312500
7886,-70.312500
7887,-70.312500
7888,-70.312500
7889,-70.312500
7890,-66.406250
7891,-66.406250
7892,-66.406250
7893,-66.406250
7894,-66.406250
7895,-66.406250
7896,-66.406250
7897,-66.406250
7898,-62.500000
7899,-62.500000
7900,-62.500000
7901,-62.500000
7902,-62.500000
7903,-62.500000
7904,-62.500000
7905,-58.593750
7906,-58.593750
7907,-58.593750
7908,-58.593750
7909,-58.593750
7910,-58.593750
7911,-58.593750
7912,-54.687500
7913,-54.687500
7914,-54.687500
7915,-54.687500
7916,-54.687500
7917,-54.687500
7918,-54.687500
7919,-54.687500
7920,-50.781250
7921,-50.781250
7922,-50.781250
7923,-50.781250
7924,-50.781250
7925,-50.781250
7926,-50.781250
7927,-46.875000
7928,-46.875000
7929,-46.875000
7930,-46.875000
7931,-46.875000
7932,-46.875000
7933,-46.875000
7934,-46.875000
7935,-42.968750
7936,-42.968750
7937,-42.968750
7938,-42.968750
7939,-42.968750
7940,-42.968750
7941,-39.062500
7942,-39.062500
7943,-39.062500
7944,-39.062500
7945,-39.062500
7946,-39.062500
7947,-39.062500
7948,-35.156250
7949,-35.156250
7950,-35.156250
7951,-35.156250
7952,-35.156250
7953,-35.156250
7954,-31.250000
7955,-31.250000
7956,-31.250000
7957,-31.250000
7958,-31.250000
7959,-31.250000
7960,-31.250000
7961,-31.250000
7962,-31.250000
7963,-27.343750
7964,-27.343750
7965,-27.343750
7966,-27.343750
7967,-27.343750
7968,-23.437500
7969,-23.437500
7970,-23.437500
7971,-23.437500
7972,-23.437500
7973,-23.437500
7974,-23.437500
7975,-23.437500
7976,-19.531250
7977,-19.531250
7978,-19.531250
7979,-19.531250
7980,-19.531250
7981,-19.531250
7982,-15.625000
7983,-15.625000
7984,-15.625000
7985,-15.625000
7986,-15.625000
7987,-15.625000
7988,-15.625000
7989,-11.718750
7990,-11.718750
7991,-11.718750
7992,-11.718750
7993,-11.718750
7994,-7.812500
7995,-11.718750
7996,-7.812500
7997,-7.812500
7998,-7.812500
7999,-7.812500
8000,-7.812500
8001,-7.812500
8002,-3.906250
8003,-3.906250
8004,-3.906250
8005,-3.906250
8006,-3.906250
8007,-3.906250
8008,0.000000
8009,0.000000
8010,0.000000
8011,0.000000
8012,0.000000
8013,0.000000
8014,0.000000
8015,0.000000
8016,3.906250
8017,3.906250
8018,3.906250
8019,3.906250
8020,3.906250
8021,3.906250
8022,3.906250
8023,7.812500
8024,7.812500
8025,7.812500
8026,7.812500
8027,7.812500
8028,7.812500
8029,7.812500
8030,11.718750
8031,11.718750
8032,11.718750
8033,11.718750
8034,11.718750
8035,11.718750
8036,15.625000
8037,11.718750
8038,15.625000
8039,15.625000
8040,15.625000
8041,15.625000
8042,15.625000
8043,19.531250
8044,19.531250
8045,19.531250
8046,19.531250
8047,19.531250
8048,19.531250
8049,19.531250
8050,23.437500
8051,23.437500
8052,23.437500
8053,19.531250
8054,27.343750
8055,23.437500
8056,23.437500
8057,27.343750
8058,27.343750
8059,23.437500
8060,27.343750
8061,27.343750
8062,27.343750
8063,27.343750
8064,27.343750
8065,27.343750
8066,31.250000
8067,27.343750
8068,31.250000
8069,31.250000
8070,31.250000
8071,31.250000
8072,31.250000
8073,31.250000
8074,35.156250
8075,35.156250
8076,35.156250
8077,35.156250
8078,35.156250
8079,35.156250
8080,35.156250
8081,35.156250
8082,35.156250
8083,35.156250
8084,39.062500
8085,39.062500
8086,39.062500
8087,39.062500
8088,39.062500
8089,39.062500
8090,39.062500
8091,39.062500
8092,42.968750
8093,42.968750
8094,42.968750
8095,42.968750
8096,42.968750
8097,42.968750
8098,42.968750
8099,42.968750
8100,42.968750
8101,46.875000
8102,46.875000
8103,46.875000
8104,46.875000
8105,46.875000
8106,46.875000
8107,46.875000
8108,46.875000
8109,46.875000
8110,46.875000
8111,46.875000
8112,50.781250
8113,50.781250
8114,50.781250
8115,50.781250
8116,50.781250
8117,50.781250
8118,50.781250
8119,50.781250
8120,54.687500
8121,54.687500
8122,54.687500
8123,54.687500
8124,50.781250
8125,54.687500
8126,54.687500
8127,54.687500
8128,54.687500
8129,54.687500
8130,54.687500
8131,54.687500
8132,54.687500
8133,54.687500
8134,58.593750
8135,58.593750
8136,58.593750
8137,58.593750
8138,58.593750
8139,58.593750
8140,58.593750
8141,58.593750
8142,58.593750
8143,58.593750
8144,58.593750
8145,62.500000
8146,62.500000
8147,62.500000
8148,62.500000
8149,62.500000
8150,62.500000
8151,62.500000
8152,62.500000
8153,62.500000
8154,62.500000
8155,62.500000
8156,62.500000
8157,62.500000
8158,62.500000
8159,66.406250
8160,66.406250
8161,66.406250
8162,66.406250
8163,66.406250
8164,66.406250
8165,66.406250
8166,66.406250
8167,66.406250
8168,66.406250
8169,66.406250
8170,66.406250
8171,66.406250
8172,66.406250
8173,66.406250
8174,66.406250
8175,66.406250
8176,70.312500
8177,70.312500
8178,66.406250
8179,70.312500
8180,66.406250
8181,70.312500
8182,70.312500
8183,70.312500
8184,70.312500
8185,70.312500
8186,70.312500
8187,70.312500
8188,70.312500
8189,70.312500
8190,70.312500
8191,70.312500
8192,70.312500
8193,70.312500
8194,70.312500
8195,70.312500
8196,70.312500
8197,74.218750
8198,70.312500
8199,74.218750
8200,70.312500
8201,70.312500
8202,74.218750
8203,70.312500
8204,74.218750
8205,74.218750
8206,74.218750
8207,74.218750
8208,74.218750
8209,74.218750
8210,74.218750
8211,74.218750
8212,74.218750
8213,74.218750
8214,74.218750
8215,74.218750
8216,74.218750
8217,74.218750
8218,74.218750
8219,74.218750
8220,74.218750
8221,74.218750
8222,74.218750
8223,74.218750
8224,74.218750
8225,74.218750
8226,74.218750
8227,74.218750
8228,74.218750
8229,74.218750
8230,74.218750
8231,74.218750
8232,74.218750
8233,74.218750
8234,74.218750
8235,74.218750
8236,74.218750
8237,74.218750
8238,74.218750
8239,74.218750
8240,74.218750
8241,74.218750
8242,74.218750
8243,74.218750
8244,74.218750
8245,74.218750
8246,74.218750
8247,74.218750
8248,74.218750
8249,74.218750
8250,74.218750
8251,74.218750
8252,74.218750
8253,74.218750
8254,74.218750
8255,74.218750
8256,74.218750
8257,74.218750
8258,74.218750
8259,74.218750
8260,74.218750
8261,74.218750
8262,74.218750
8263,74.218750
8264,74.218750
8265,74.218750
8266,74.218750
8267,74.218750
8268,74.218750
8269,74.218750
8270,74.218750
8271,74.218750
8272,74.218750
8273,74.218750
8274,74.218750
8275,74.218750
8276,70.312500
8277,70.312500
8278,70.312500
8279,70.312500
8280,70.312500
8281,70.312500
8282,70.312500
8283,70.312500
8284,74.218750
8285,70.312500
8286,70.312500
8287,70.312500
8288,70.312500
8289,70.312500
8290,70.312500
8291,70.312500
8292,70.312500
8293,70.312500
8294,70.312500
8295,70.312500
8296,70.312500
8297,70.312500
8298,70.312500
8299,70.312500
8300,70.312500
8301,70.312500
8302,70.312500
8303,66.406250
8304,66.406250
8305,66.406250
8306,66.406250
8307,66.406250
8308,66.406250
8309,66.406250
8310,66.406250
8311,66.406250
8312,66.406250
8313,66.406250
8314,66.406250
8315,66.406250
8316,66.406250
8317,66.406250
8318,66.406250
8319,66.406250
8320,66.406250
8321,62.500000
8322,62.500000
8323,62.500000
8324,62.500000
8325,62.500000
8326,62.500000
8327,62.500000
8328,62.500000
8329,62.500000
8330,62.500000
8331,62.500000
8332,62.500000
8333,62.500000
8334,62.500000
8335,62.500000
8336,62.500000
8337,62.500000
8338,58.593750
8339,58.593750
8340,58.593750
8341,58.593750
8342,58.593750
8343,58.593750
8344,58.593750
8345,58.593750
8346,58.593750
8347,58.593750
8348,58.593750
8349,58.593750
8350,54.687500
8351,54.687500
8352,54.687500
8353,54.687500
8354,54.687500
8355,54.687500
8356,54.687500
8357,54.687500
8358,54.687500
8359,54.687500
8360,50.781250
8361,50.781250
8362,50.781250
8363,50.781250
8364,50.781250
8365,50.781250
8366,50.781250
8367,50.781250
8368,50.781250
8369,50.781250
8370,50.781250
8371,46.875000
8372,46.875000
8373,46.875000
8374,46.875000
8375,46.875000
8376,46.875000
8377,46.875000
8378,46.875000
8379,42.968750
8380,42.968750
8381,42.968750
8382,42.968750
8383,42.968750
8384,42.968750
8385,42.968750
8386,42.968750
8387,42.968750
8388,42.968750
8389,39.062500
8390,39.062500
8391,39.062500
8392,39.062500
8393,39.062500
8394,39.062500
8395,39.062500
8396,39.062500
8397,39.062500
8398,35.156250
8399,35.156250
8400,35.156250
8401,35.156250
8402,35.156250
8403,35.156250
8404,35.156250
8405,31.250000
8406,31.250000
8407,31.250000
8408,31.250000
8409,31.250000
8410,31.250000
8411,31.250000
8412,31.250000
8413,31.250000
8414,27.343750
8415,27.343750
8416,27.343750
8417,27.343750
8418,27.343750
8419,27.343750
8420,27.343750
8421,27.343750
8422,27.343750
8423,23.437500
8424,23.437500
8425,23.437500
8426,23.437500
8427,23.437500
8428,23.437500
8429,23.437500
8430,23.437500
8431,19.531250
8432,19.531250
8433,19.531250
8434,19.531250
8435,19.531250
8436,19.531250
8437,19.531250
8438,19.531250
8439,15.625000
8440,15.625000
8441,15.625000
8442,15.625000
8443,15.625000
8444,11.718750
8445,11.718750
8446,11.718750
8447,11.718750
8448,11.718750
8449,11.718750
8450,7.812500
8451,11.718750
8452,11.718750
8453,7.812500
8454,7.812500
8455,7.812500
8456,7.812500
8457,7.812500
8458,7.812500
8459,7.812500
8460,3.906250
8461,3.906250
8462,3.906250
8463,3.906250
8464,3.906250
8465,3.906250
8466,3.906250
8467,0.000000
8468,0.000000
8469,0.000000
8470,0.000000
8471,0.000000
8472,0.000000
8473,0.000000
8474,-3.906250
8475,-3.906250
8476,-3.906250
8477,-3.906250
8478,-3.906250
8479,-7.812500
8480,-3.906250
8481,-7.812500
8482,-7.812500
8483,-7.812500
8484,-7.812500
8485,-7.812500
8486,-7.812500
8487,-7.812500
8488,-11.718750
8489,-11.718750
8490,-11.718750
8491,-11.718750
8492,-11.718750
8493,-11.718750
8494,-15.625000
8495,-15.625000
8496,-15.625000
8497,-15.625000
8498,-15.625000
8499,-15.625000
8500,-15.625000
8501,-19.531250
8502,-19.531250
8503,-19.531250
8504,-19.531250
8505,-19.531250
8506,-19.531250
8507,-23.437500
8508,-23.437500
8509,-23.437500
8510,-23.437500
8511,-23.437500
8512,-23.437500
8513,-23.437500
8514,-23.437500
8515,-27.343750
8516,-27.343750
8517,-27.343750
8518,-27.343750
8519,-27.343750
8520,-31.250000
8521,-31.250000
8522,-31.250000
8523,-31.250000
8524,-31.250000
8525,-31.250000
8526,-31.250000
8527,-31.250000
8528,-35.156250
8529,-35.156250
8530,-35.156250
8531,-35.156250
8532,-35.156250
8533,-39.062500
8534,-35.156250
8535,-39.062500
8536,-39.062500
8537,-39.062500
8538,-39.062500
8539,-39.062500
8540,-39.062500
8541,-42.968750
8542,-42.968750
8543,-42.968750
8544,-42.968750
8545,-42.968750
8546,-42.968750
8547,-42.968750
8548,-42.968750
8549,-46.875000
8550,-46.875000
8551,-46.875000
8552,-46.875000
8553,-46.875000
8554,-46.875000
8555,-46.875000
8556,-50.781250
8557,-50.781250
8558,-50.781250
8559,-50.781250
8560,-50.781250
8561,-50.781250
8562,-50.781250
8563,-54.687500
8564,-54.687500
8565,-54.687500
8566,-54.687500
8567,-54.687500
8568,-54.687500
8569,-54.687500
8570,-54.687500
8571,-54.687500
8572,-58.593750
8573,-58.593750
8574,-58.593750
8575,-58.593750
8576,-58.593750
8577,-58.593750
8578,-58.593750
8579,-62.500000
8580,-62.500000
8581,-62.500000
8582,-62.500000
8583,-62.500000
8584,-62.500000
8585,-62.500000
8586,-66.406250
8587,-66.406250
8588,-66.406250
8589,-66.406250
8590,-66.406250
8591,-66.406250
8592,-66.406250
8593,-66.406250
8594,-70.312500
8595,-70.312500
8596,-70.312500
8597,-70.312500
8598,-70.312500
8599,-70.312500
8600,-70.312500
8601,-74.218750
8602,-70.312500
8603,-74.218750
8604,-74.218750
8605,-74.218750
8606,-74.218750
8607,-74.218750
8608,-74.218750
8609,-74.218750
8610,-78.125000
8611,-78.125000
8612,-78.125000
8613,-78.125000
8614,-78.125000
8615,-78.125000
8616,-78.125000
8617,-78.125000
8618,-78.125000
8619,-82.031250
8620,-82.031250
8621,-82.031250
8622,-82.031250
8623,-82.031250
8624,-82.031250
8625,-82.031250
8626,-82.031250
8627,-82.031250
8628,-82.031250
8629,-82.031250
8630,-85.937500
8631,-85.937500
8632,-85.937500
8633,-85.937500
8634,-85.937500
8635,-85.937500
8636,-85.937500
8637,-85.937500
8638,-85.937500
8639,-85.937500
8640,-85.937500
8641,-85.937500
8642,-89.843750
8643,-89.843750
8644,-89.843750
8645,-89.843750
8646,-89.843750
8647,-89.843750
8648,-89.843750
8649,-89.843750
8650,-89.843750
8651,-93.750000
8652,-93.750000
8653,-93.750000
8654,-93.750000
8655,-93.750000
8656,-93.750000
8657,-93.750000
8658,-93.750000
8659,-93.750000
8660,-93.750000
8661,-93.750000
8662,-93.750000
8663,-93.750000
8664,-97.656250
8665,-97.656250
8666,-97.656250
8667,-97.656250
8668,-97.656250
8669,-97.656250
8670,-97.656250
8671,-97.656250
8672,-97.656250
8673,-97.656250
8674,-97.656250
8675,-97.656250
8676,-97.656250
8677,-97.656250
8678,-101.562500
8679,-97.656250
8680,-101.562500
8681,-97.656250
8682,-101.562500
8683,-101.562500
8684,-101.562500
8685,-101.562500
8686,-101.562500
8687,-101.562500
8688,-101.562500
8689,-101.562500
8690,-101.562500
8691,-101.562500
8692,-101.562500
8693,-101.562500
8694,-101.562500
8695,-101.562500
8696,-101.562500
8697,-101.562500
8698,-101.562500
8699,-101.562500
8700,-101.562500
8701,-101.562500
8702,-105.468750
8703,-105.468750
8704,-105.468750
8705,-105.468750
8706,-105.468750
8707,-105.468750
8708,-105.468750
8709,-105.468750
8710,-105.468750
8711,-105.468750
8712,-105.468750
8713,-105.468750
8714,-105.468750
8715,-105.468750
8716,-105.468750
8717,-105.468750
8718,-105.468750
8719,-105.468750
8720,-105.468750
8721,-105.468750
8722,-105.468750
8723,-105.468750
8724,-105.468750
8725,-105.468750
8726,-105.468750
8727,-105.468750
8728,-105.468750
8729,-105.468750
8730,-105.468750
8731,-105.468750
8732,-105.468750
8733,-105.468750
8734,-105.468750
8735,-105.468750
8736,-105.468750
8737,-105.468750
8738,-105.468750
8739,-105.468750
8740,-105.468750
8741,-105.468750
8742,-105.468750
8743,-105.468750
8744,-105.468750
8745,-105.468750
8746,-105.468750
8747,-105.468750
8748,-105.468750
8749,-105.468750
8750,-105.468750
8751,-105.468750
8752,-105.468750
8753,-105.468750
8754,-105.468750
8755,-105.468750
8756,-105.468750
8757,-105.468750
8758,-105.468750
8759,-105.468750
8760,-105.468750
8761,-105.468750
8762,-105.468750
8763,-105.468750
8764,-105.468750
8765,-105.468750
8766,-105.468750
8767,-105.468750
8768,-105.468750
8769,-105.468750
8770,-105.468750
8771,-101.562500
8772,-101.562500
8773,-105.468750
8774,-101.562500
8775,-101.562500
8776,-101.562500
8777,-101.562500
8778,-101.562500
8779,-101.562500
8780,-101.562500
8781,-101.562500
8782,-101.562500
8783,-101.562500
8784,-101.562500
8785,-101.562500
8786,-101.562500
8787,-101.562500
8788,-101.562500
8789,-101.562500
8790,-97.656250
8791,-101.562500
8792,-97.656250
8793,-97.656250
8794,-97.656250
8795,-97.656250
8796,-97.656250
8797,-97.656250
8798,-97.656250
8799,-97.656250
8800,-97.656250
8801,-97.656250
8802,-97.656250
8803,-97.656250
8804,-97.656250
8805,-97.656250
8806,-97.656250
8807,-97.656250
8808,-93.750000
8809,-93.750000
8810,-93.750000
8811,-93.750000
8812,-93.750000
8813,-93.750000
8814,-93.750000
8815,-93.750000
8816,-93.750000
8817,-93.750000
8818,-93.750000
8819,-93.750000
8820,-93.750000
8821,-89.843750
8822,-89.843750
8823,-89.843750
8824,-89.843750
8825,-89.843750
8826,-89.843750
8827,-89.843750
8828,-89.843750
8829,-89.843750
8830,-89.843750
8831,-89.843750
8832,-89.843750
8833,-85.937500
8834,-85.937500
8835,-85.937500
8836,-85.937500
8837,-85.937500
8838,-85.937500
8839,-85.937500
8840,-85.937500
8841,-85.937500
8842,-85.937500
8843,-82.031250
8844,-82.031250
8845,-82.031250
8846,-82.031250
8847,-82.031250
8848,-82.031250
8849,-82.031250
8850,-82.031250
8851,-82.031250
8852,-78.125000
8853,-78.125000
8854,-78.125000
8855,-78.125000
8856,-78.125000
8857,-78.125000
8858,-78.125000
8859,-78.125000
8860,-78.125000
8861,-78.125000
8862,-74.218750
8863,-74.218750
8864,-74.218750
8865,-74.218750
8866,-74.218750
8867,-74.218750
8868,-74.218750
8869,-74.218750
8870,-74.218750
8871,-74.218750
8872,-70.312500
8873,-70.312500
8874,-70.312500
8875,-70.312500
8876,-70.312500
8877,-70.312500
8878,-70.312500
8879,-70.312500
8880,-66.406250
8881,-66.406250
8882,-66.406250
8883,-66.406250
8884,-66.406250
8885,-66.406250
8886,-66.406250
8887,-62.500000
8888,-62.500000
8889,-62.500000
8890,-62.500000
8891,-62.500000
8892,-62.500000
8893,-62.500000
8894,-62.500000
8895,-58.593750
8896,-58.593750
8897,-58.593750
8898,-58.593750
8899,-58.593750
8900,-58.593750
8901,-58.593750
8902,-54.687500
8903,-54.687500
8904,-54.687500
8905,-54.687500
8906,-54.687500
8907,-54.687500
8908,-54.687500
8909,-54.687500
8910,-50.781250
8911,-50.781250
8912,-50.781250
8913,-50.781250
8914,-50.781250
8915,-50.781250
8916,-50.781250
8917,-50.781250
8918,-46.875000
8919,-46.875000
8920,-46.875000
8921,-46.875000
8922,-46.875000
8923,-46.875000
8924,-46.875000
8925,-42.968750
8926,-42.968750
8927,-42.968750
8928,-42.968750
8929,-42.968750
8930,-39.062500
8931,-42.968750
8932,-39.062500
8933,-39.062500
8934,-39.062500
8935,-39.062500
8936,-39.062500
8937,-39.062500
8938,-35.156250
8939,-35.156250
8940,-35.156250
8941,-35.156250
8942,-35.156250
8943,-35.156250
8944,-35.156250
8945,-31.250000
8946,-31.250000
8947,-31.250000
8948,-31.250000
8949,-31.250000
8950,-27.343750
8951,-27.343750
8952,-27.343750
8953,-27.343750
8954,-27.343750
8955,-27.343750
8956,-27.343750
8957,-27.343750
8958,-23.437500
8959,-23.437500
8960,-23.437500
8961,-23.437500
8962,-23.437500
8963,-23.437500
8964,-19.531250
8965,-23.437500
8966,-19.531250
8967,-19.531250
8968,-19.531250
8969,-19.531250
8970,-19.531250
8971,-19.531250
8972,-15.625000
8973,-15.625000
8974,-15.625000
8975,-15.625000
8976,-15.625000
8977,-15.625000
8978,-11.718750
8979,-11.718750
8980,-11.718750
8981,-11.718750
8982,-11.718750
8983,-7.812500
8984,-7.812500
8985,-7.812500
8986,-7.812500
8987,-7.812500
8988,-7.812500
8989,-7.812500
8990,-7.812500
8991,-7.812500
8992,-3.906250
8993,-3.906250
8994,-3.906250
8995,-3.906250
8996,-3.906250
8997,-3.906250
8998,0.000000
8999,0.000000
9000,0.000000
9001,0.000000
9002,0.000000
9003,0.000000
9004,0.000000
9005,0.000000
9006,3.906250
9007,3.906250
9008,3.906250
9009,3.906250
9010,3.906250
9011,3.906250
9012,7.812500
9013,7.812500
9014,7.812500
9015,7.812500
9016,7.812500
9017,7.812500
9018,7.812500
9019,7.812500
9020,11.718750
9021,11.718750
9022,11.718750
9023,11.718750
9024,11.718750
9025,11.718750
9026,11.718750
9027,11.718750
9028,15.625000
9029,15.625000
9030,15.625000
9031,15.625000
9032,15.625000
9033,15.625000
9034,19.531250
9035,19.531250
9036,19.531250
9037,19.531250
9038,19.531250
9039,19.531250
9040,19.531250
9041,19.531250
9042,23.437500
9043,23.437500
9044,23.437500
9045,23.437500
9046,23.437500
9047,23.437500
9048,23.437500
9049,23.437500
9050,27.343750
9051,27.343750
9052,27.343750
9053,27.343750
9054,27.343750
9055,27.343750
9056,27.343750
9057,31.250000
9058,31.250000
9059,31.250000
9060,31.250000
9061,31.250000
9062,31.250000
9063,31.250000
9064,31.250000
9065,31.250000
9066,35.156250
9067,35.156250
9068,35.156250
9069,35.156250
9070,35.156250
9071,35.156250
9072,35.156250
9073,35.156250
9074,39.062500
9075,39.062500
9076,39.062500
9077,39.062500
9078,39.062500
9079,39.062500
9080,39.062500
9081,39.062500
9082,39.062500
9083,42.968750
9084,42.968750
9085,42.968750
9086,42.968750
9087,42.968750
9088,42.968750
9089,42.968750
9090,46.875000
9091,46.875000
9092,46.875000
9093,46.875000
9094,46.875000
9095,46.875000
9096,46.875000
9097,46.875000
9098,46.875000
9099,46.875000
9100,46.875000
9101,50.781250
9102,50.781250
9103,50.781250
9104,50.781250
9105,50.781250
9106,50.781250
9107,50.781250
9108,50.781250
9109,50.781250
9110,50.781250
9111,50.781250
9112,54.687500
9113,50.781250
9114,54.687500
9115,54.687500
9116,54.687500
9117,54.687500
9118,54.687500
9119,54.687500
9120,54.687500
9121,54.687500
9122,54.687500
9123,54.687500
9124,58.593750
9125,58.593750
9126,58.593750
9127,58.593750
9128,58.593750
9129,58.593750
9130,58.593750
9131,58.593750
9132,58.593750
9133,58.593750
9134,58.593750
9135,58.593750
9136,62.500000
9137,62.500000
9138,62.500000
9139,62.500000
9140,62.500000
9141,62.500000
9142,62.500000
9143,62.500000
9144,62.500000
9145,62.500000
9146,62.500000
9147,62.500000
9148,62.500000
9149,62.500000
9150,62.500000
9151,62.500000
9152,62.500000
9153,62.500000
9154,66.406250
9155,66.406250
9156,66.406250
9157,66.406250
9158,66.406250
9159,66.406250
9160,66.406250
9161,66.406250
9162,66.406250
9163,66.406250
9164,66.406250
9165,66.406250
9166,66.406250
9167,70.312500
9168,70.312500
9169,66.406250
9170,66.406250
9171,70.312500
9172,70.312500
9173,70.312500
9174,70.312500
9175,70.312500
9176,70.312500
9177,70.312500
9178,70.312500
9179,70.312500
9180,70.312500
9181,70.312500
9182,70.312500
9183,70.312500
9184,70.312500
9185,70.312500
9186,70.312500
9187,70.312500
9188,70.312500
9189,70.312500
9190,70.312500
9191,70.312500
9192,70.312500
9193,70.312500
9194,74.218750
9195,74.218750
9196,74.218750
9197,74.218750
9198,74.218750
9199,74.218750
9200,74.218750
9201,74.218750
9202,74.218750
9203,74.218750
9204,74.218750
9205,74.218750
9206,74.218750
9207,74.218750
9208,74.218750
9209,74.218750
9210,74.218750
9211,74.218750
9212,74.218750
9213,74.218750
9214,74.218750
9215,74.218750
9216,74.218750
9217,74.218750
9218,74.218750
9219,74.218750
9220,74.218750
9221,74.218750
9222,74.218750
9223,74.218750
9224,74.218750
9225,74.218750
9226,74.218750
9227,74.218750
9228,74.218750
9229,74.218750
9230,74.218750
9231,74.218750
9232,74.218750
9233,74.218750
9234,74.218750
9235,74.218750
9236,74.218750
9237,74.218750
9238,74.218750
9239,74.218750
9240,74.218750
9241,78.125000
9242,70.312500
9243,74.218750
9244,74.218750
9245,74.218750
9246,74.218750
9247,74.218750
9248,74.218750
9249,74.218750
9250,74.218750
9251,74.218750
9252,74.218750
9253,74.218750
9254,74.218750
9255,74.218750
9256,74.218750
9257,74.218750
9258,74.218750
9259,74.218750
9260,74.218750
9261,74.218750
9262,74.218750
9263,74.218750
9264,74.218750
9265,74.218750
9266,74.218750
9267,74.218750
9268,70.312500
9269,70.312500
9270,70.312500
9271,70.312500
9272,70.312500
9273,70.312500
9274,70.312500
9275,70.312500
9276,70.312500
9277,70.312500
9278,70.312500
9279,70.312500
9280,70.312500
9281,70.312500
9282,70.312500
9283,70.312500
9284,70.312500
9285,70.312500
9286,70.312500
9287,70.312500
9288,70.312500
9289,70.312500
9290,70.312500
9291,70.312500
9292,70.312500
9293,66.406250
9294,66.406250
9295,66.406250
9296,66.406250
9297,66.406250
9298,66.406250
9299,66.406250
9300,66.406250
9301,66.406250
9302,66.406250
9303,66.406250
9304,62.500000
9305,66.406250
9306,66.406250
9307,66.406250
9308,62.500000
9309,66.406250
9310,62.500000
9311,62.500000
9312,62.500000
9313,62.500000
9314,62.500000
9315,62.500000
9316,62.500000
9317,62.500000
9318,62.500000
9319,62.500000
9320,62.500000
9321,62.500000
9322,58.593750
9323,58.593750
9324,58.593750
9325,58.593750
9326,58.593750
9327,58.593750
9328,58.593750
9329,58.593750
9330,58.593750
9331,58.593750
9332,58.593750
9333,58.593750
9334,58.593750
9335,54.687500
9336,54.687500
9337,58.593750
9338,54.687500
9339,54.687500
9340,54.687500
9341,54.687500
9342,54.687500
9343,54.687500
9344,54.687500
9345,54.687500
9346,54.687500
9347,54.687500
9348,50.781250
9349,50.781250
9350,50.781250
9351,50.781250
9352,50.781250
9353,50.781250
9354,50.781250
9355,50.781250
9356,50.781250
9357,50.781250
9358,50.781250
9359,50.781250
9360,46.875000
9361,46.875000
9362,46.875000
9363,46.875000
9364,46.875000
9365,46.875000
9366,46.875000
9367,46.875000
9368,46.875000
9369,42.968750
9370,42.968750
9371,42.968750
9372,42.968750
9373,42.968750
9374,42.968750
9375,42.968750
9376,42.968750
9377,42.968750
9378,42.968750
9379,39.062500
9380,39.062500
9381,39.062500
9382,39.062500
9383,39.062500
9384,39.062500
9385,39.062500
9386,39.062500
9387,35.156250
9388,35.156250
9389,35.156250
9390,35.156250
9391,35.156250
9392,35.156250
9393,35.156250
9394,35.156250
9395,31.250000
9396,31.250000
9397,31.250000
9398,31.250000
9399,31.250000
9400,31.250000
9401,31.250000
9402,31.250000
9403,27.343750
9404,27.343750
9405,27.343750
9406,27.343750
9407,27.343750
9408,27.343750
9409,27.343750
9410,27.343750
9411,27.343750
9412,27.343750
9413,23.437500
9414,23.437500
9415,23.437500
9416,23.437500
9417,23.437500
9418,23.437500
9419,23.437500
9420,19.531250
9421,19.531250
9422,19.531250
9423,19.531250
9424,19.531250
9425,19.531250
9426,19.531250
9427,15.625000
9428,15.625000
9429,15.625000
9430,15.625000
9431,15.625000
9432,15.625000
9433,11.718750
9434,15.625000
9435,11.718750
9436,11.718750
9437,11.718750
9438,11.718750
9439,11.718750
9440,11.718750
9441,11.718750
9442,7.812500
9443,7.812500
9444,7.812500
9445,7.812500
9446,7.812500
9447,7.812500
9448,7.812500
9449,3.906250
9450,3.906250
9451,3.906250
9452,3.906250
9453,3.906250
9454,3.906250
9455,3.906250
9456,0.000000
9457,0.000000
9458,0.000000
9459,0.000000
9460,0.000000
9461,0.000000
9462,0.000000
9463,-3.906250
9464,-3.906250
9465,-3.906250
9466,-3.906250
9467,-3.906250
9468,-3.906250
9469,-3.906250
9470,-3.906250
9471,-7.812500
9472,-7.812500
9473,-7.812500
9474,-7.812500
9475,-7.812500
9476,-7.812500
9477,-7.812500
9478,-11.718750
9479,-11.718750
9480,-11.718750
9481,-11.718750
9482,-11.718750
9483,-11.718750
9484,-15.625000
9485,-15.625000
9486,-15.625000
9487,-15.625000
9488,-15.625000
9489,-15.625000
9490,-15.625000
9491,-19.531250
9492,-19.531250
9493,-19.531250
9494,-19.531250
9495,-19.531250
9496,-19.531250
9497,-19.531250
9498,-19.531250
9499,-23.437500
9500,-23.437500
9501,-23.437500
9502,-23.437500
9503,-23.437500
9504,-23.437500
9505,-27.343750
9506,-27.343750
9507,-27.343750
9508,-27.343750
9509,-27.343750
9510,-27.343750
9511,-27.343750
9512,-31.250000
9513,-31.250000
9514,-31.250000
9515,-31.250000
9516,-31.250000
9517,-31.250000
9518,-35.156250
9519,-35.156250
9520,-35.156250
9521,-35.156250
9522,-35.156250
9523,-35.156250
9524,-39.062500
9525,-35.156250
9526,-39.062500
9527,-39.062500
9528,-42.968750
9529,-39.062500
9530,-39.062500
9531,-42.968750
9532,-42.968750
9533,-42.968750
9534,-42.968750
9535,-42.968750
9536,-42.968750
9537,-42.968750
9538,-42.968750
9539,-46.875000
9540,-46.875000
9541,-46.875000
9542,-46.875000
9543,-46.875000
9544,-46.875000
9545,-46.875000
9546,-50.781250
9547,-50.781250
9548,-50.781250
9549,-50.781250
9550,-50.781250
9551,-50.781250
9552,-50.781250
9553,-50.781250
9554,-54.687500
9555,-54.687500
9556,-54.687500
9557,-54.687500
9558,-54.687500
9559,-54.687500
9560,-58.593750
9561,-58.593750
9562,-58.593750
9563,-58.593750
9564,-58.593750
9565,-58.593750
9566,-58.593750
9567,-62.500000
9568,-58.593750
9569,-62.500000
9570,-62.500000
9571,-62.500000
9572,-62.500000
9573,-62.500000
9574,-62.500000
9575,-66.406250
9576,-66.406250
9577,-66.406250
9578,-66.406250
9579,-66.406250
9580,-66.406250
9581,-66.406250
9582,-66.406250
9583,-70.312500
9584,-70.312500
9585,-70.312500
9586,-70.312500
9587,-70.312500
9588,-70.312500
9589,-70.312500
9590,-70.312500
9591,-74.218750
9592,-74.218750
9593,-74.218750
9594,-74.218750
9595,-74.218750
9596,-74.218750
9597,-74.218750
9598,-74.218750
9599,-74.218750
9600,-74.218750
9601,-78.125000
9602,-78.125000
9603,-78.125000
9604,-78.125000
9605,-78.125000
9606,-78.125000
9607,-78.125000
9608,-78.125000
9609,-82.031250
9610,-78.125000
9611,-82.031250
9612,-82.031250
9613,-82.031250
9614,-82.031250
9615,-82.031250
9616,-85.937500
9617,-82.031250
9618,-82.031250
9619,-82.031250
9620,-85.937500
9621,-85.937500
9622,-85.937500
9623,-85.937500
9624,-85.937500
9625,-85.937500
9626,-85.937500
9627,-85.937500
9628,-85.937500
9629,-85.937500
9630,-85.937500
9631,-85.937500
9632,-89.843750
9633,-89.843750
9634,-89.843750
9635,-89.843750
9636,-89.843750
9637,-89.843750
9638,-89.843750
9639,-89.843750
9640,-89.843750
9641,-89.843750
9642,-93.750000
9643,-93.750000
9644,-93.750000
9645,-93.750000
9646,-93.750000
9647,-93.750000
9648,-93.750000
9649,-93.750000
9650,-93.750000
9651,-93.750000
9652,-93.750000
9653,-93.750000
9654,-97.656250
9655,-97.656250
9656,-97.656250
9657,-97.656250
9658,-97.656250
9659,-97.656250
9660,-97.656250
9661,-97.656250
9662,-97.656250
9663,-97.656250
9664,-97.656250
9665,-97.656250
9666,-97.656250
9667,-97.656250
9668,-97.656250
9669,-101.562500
9670,-101.562500
9671,-101.562500
9672,-101.562500
9673,-101.562500
9674,-101.562500
9675,-101.562500
9676,-101.562500
9677,-101.562500
9678,-101.562500
9679,-101.562500
9680,-101.562500
9681,-101.562500
9682,-101.562500
9683,-101.562500
9684,-105.468750
9685,-101.562500
9686,-101.562500
9687,-101.562500
9688,-101.562500
9689,-101.562500
9690,-105.468750
9691,-105.468750
9692,-105.468750
9693,-105.468750
9694,-105.468750
9695,-105.468750
9696,-105.468750
9697,-105.468750
9698,-105.468750
9699,-105.468750
9700,-105.468750
9701,-105.468750
9702,-105.468750
9703,-105.468750
9704,-105.468750
9705,-105.468750
9706,-105.468750
9707,-105.468750
9708,-105.468750
9709,-105.468750
9710,-105.468750
9711,-105.468750
9712,-105.468750
9713,-105.468750
9714,-105.468750
9715,-105.468750
9716,-105.468750
9717,-105.468750
9718,-105.468750
9719,-105.468750
9720,-105.468750
9721,-105.468750
9722,-105.468750
9723,-105.468750
9724,-105.468750
9725,-105.468750
9726,-105.468750
9727,-105.468750
9728,-105.468750
9729,-105.468750
9730,-105.468750
9731,-105.468750
9732,-105.468750
9733,-105.468750
9734,-105.468750
9735,-105.468750
9736,-105.468750
9737,-105.468750
9738,-105.468750
9739,-105.468750
9740,-105.468750
9741,-105.468750
9742,-105.468750
9743,-105.468750
9744,-105.468750
9745,-105.468750
9746,-105.468750
9747,-105.468750
9748,-105.468750
9749,-105.468750
9750,-105.468750
9751,-105.468750
9752,-105.468750
9753,-105.468750
9754,-105.468750
9755,-105.468750
9756,-105.468750
9757,-105.468750
9758,-105.468750
9759,-105.468750
9760,-105.468750
9761,-101.562500
9762,-101.562500
9763,-101.562500
9764,-101.562500
9765,-101.562500
9766,-101.562500
9767,-101.562500
9768,-101.562500
9769,-101.562500
9770,-101.562500
9771,-101.562500
9772,-101.562500
9773,-101.562500
9774,-101.562500
9775,-101.562500
9776,-101.562500
9777,-101.562500
9778,-101.562500
9779,-101.562500
9780,-101.562500
9781,-101.562500
9782,-97.656250
9783,-101.562500
9784,-101.562500
9785,-97.656250
9786,-101.562500
9787,-97.656250
9788,-97.656250
9789,-97.656250
9790,-97.656250
9791,-97.656250
9792,-97.656250
9793,-97.656250
9794,-97.656250
9795,-97.656250
9796,-97.656250
9797,-97.656250
9798,-97.656250
9799,-97.656250
9800,-93.750000
9801,-93.750000
9802,-93.750000
9803,-93.750000
9804,-93.750000
9805,-93.750000
9806,-93.750000
9807,-93.750000
9808,-93.750000
9809,-93.750000
9810,-93.750000
9811,-93.750000
9812,-89.843750
9813,-93.750000
9814,-89.843750
9815,-93.750000
9816,-89.843750
9817,-89.843750
9818,-89.843750
9819,-89.843750
9820,-89.843750
9821,-89.843750
9822,-89.843750
9823,-89.843750
9824,-89.843750
9825,-85.937500
9826,-89.843750
9827,-85.937500
9828,-85.937500
9829,-85.937500
9830,-85.937500
9831,-85.937500
9832,-85.937500
9833,-85.937500
9834,-82.031250
9835,-82.031250
9836,-82.031250
9837,-82.031250
9838,-82.031250
9839,-82.031250
9840,-82.031250
9841,-82.031250
9842,-82.031250
9843,-82.031250
9844,-82.031250
9845,-82.031250
9846,-78.125000
9847,-78.125000
9848,-78.125000
9849,-78.125000
9850,-78.125000
9851,-78.125000
9852,-78.125000
9853,-74.218750
9854,-74.218750
9855,-74.218750
9856,-74.218750
9857,-74.218750
9858,-74.218750
9859,-74.218750
9860,-74.218750
9861,-74.218750
9862,-70.312500
9863,-70.312500
9864,-70.312500
9865,-70.312500
9866,-70.312500
9867,-70.312500
9868,-66.406250
9869,-70.312500
9870,-66.406250
9871,-66.406250
9872,-66.406250
9873,-66.406250
9874,-66.406250
9875,-66.406250
9876,-66.406250
9877,-62.500000
9878,-62.500000
9879,-62.500000
9880,-62.500000
9881,-62.500000
9882,-62.500000
9883,-62.500000
9884,-62.500000
9885,-58.593750
9886,-58.593750
9887,-58.593750
9888,-58.593750
9889,-58.593750
9890,-58.593750
9891,-58.593750
9892,-58.593750
9893,-54.687500
9894,-54.687500
9895,-54.687500
9896,-54.687500
9897,-54.687500
9898,-54.687500
9899,-50.781250
9900,-50.781250
9901,-50.781250
9902,-50.781250
9903,-50.781250
9904,-50.781250
9905,-50.781250
9906,-46.875000
9907,-46.875000
9908,-46.875000
9909,-46.875000
9910,-46.875000
9911,-46.875000
9912,-46.875000
9913,-46.875000
9914,-42.968750
9915,-42.968750
9916,-42.968750
9917,-42.968750
9918,-42.968750
9919,-42.968750
9920,-42.968750
9921,-39.062500
9922,-39.062500
9923,-39.062500
9924,-39.062500
9925,-39.062500
9926,-39.062500
9927,-35.156250
9928,-35.156250
9929,-35.156250
9930,-35.156250
9931,-35.156250
9932,-35.156250
9933,-35.156250
9934,-31.250000
9935,-31.250000
9936,-31.250000
9937,-31.250000
9938,-31.250000
9939,-31.250000
9940,-27.343750
9941,-27.343750
9942,-27.343750
9943,-27.343750
9944,-27.343750
9945,-27.343750
9946,-27.343750
9947,-27.343750
9948,-23.437500
9949,-23.437500
9950,-23.437500
9951,-23.437500
9952,-23.437500
9953,-23.437500
9954,-23.437500
9955,-19.531250
9956,-19.531250
9957,-19.531250
9958,-19.531250
9959,-19.531250
9960,-19.531250
9961,-15.625000
9962,-15.625000
9963,-19.531250
9964,-15.625000
9965,-15.625000
9966,-15.625000
9967,-15.625000
9968,-15.625000
9969,-11.718750
9970,-11.718750
9971,-11.718750
9972,-11.718750
9973,-11.718750
9974,-7.812500
9975,-7.812500
9976,-7.812500
9977,-7.812500
9978,-7.812500
9979,-7.812500
9980,-7.812500
9981,-7.812500
9982,-3.906250
9983,-3.906250
9984,-3.906250
9985,-3.906250
9986,-3.906250
9987,-3.906250
9988,0.000000
9989,0.000000
9990,0.000000
9991,0.000000
9992,0.000000
9993,0.000000
9994,3.906250
9995,3.906250
9996,3.906250
9997,3.906250
9998,3.906250
9999,3.906250
10000,3.906250
