Channel              :,CH1
Frequency            :,1.010kHz
Period               :,0.990ms
PK-PK                :,246.1mV
Probe attenuation    :,1X
Voltage per ADC value:,0.244141mV
Time interval        :,1.00000us

index,CH1_Voltage(mV)
1,-62.500000
2,-62.500000
3,-62.500000
4,-62.500000
5,-62.500000
6,-58.593750
7,-58.593750
8,-58.593750
9,-54.687500
10,-54.687500
11,-54.687500
12,-54.687500
13,-54.687500
14,-54.687500
15,-54.687500
16,-50.781250
17,-50.781250
18,-50.781250
19,-50.781250
20,-46.875000
21,-46.875000
22,-46.875000
23,-46.875000
24,-46.875000
25,-42.968750
26,-42.968750
27,-42.968750
28,-42.968750
29,-42.968750
30,-42.968750
31,-39.062500
32,-39.062500
33,-39.062500
34,-39.062500
35,-35.156250
36,-35.156250
37,-35.156250
38,-35.156250
39,-35.156250
40,-35.156250
41,-31.250000
42,-31.250000
43,-31.250000
44,-31.250000
45,-27.343750
46,-27.343750
47,-27.343750
48,-27.343750
49,-27.343750
50,-23.437500
51,-23.437500
52,-23.437500
53,-23.437500
54,-23.437500
55,-23.437500
56,-19.531250
57,-19.531250
58,-19.531250
59,-19.531250
60,-15.625000
61,-15.625000
62,-15.625000
63,-15.625000
64,-15.625000
65,-11.718750
66,-11.718750
67,-11.718750
68,-11.718750
69,-11.718750
70,-7.812500
71,-7.812500
72,-7.812500
73,-7.812500
74,-7.812500
75,-7.812500
76,-3.906250
77,-3.906250
78,-3.906250
79,-3.906250
80,0.000000
81,0.000000
82,0.000000
83,0.000000
84,0.000000
85,0.000000
86,3.906250
87,3.906250
88,3.906250
89,7.812500
90,7.812500
91,7.812500
92,7.812500
93,7.812500
94,7.812500
95,11.718750
96,11.718750
97,11.718750
98,11.718750
99,11.718750
100,15.625000
101,15.625000
102,15.625000
103,15.625000
104,15.625000
105,15.625000
106,19.531250
107,19.531250
108,19.531250
109,19.531250
110,19.531250
111,19.531250
112,23.437500
113,23.437500
114,23.437500
115,23.437500
116,27.343750
117,27.343750
118,27.343750
119,27.343750
120,27.343750
121,27.343750
122,31.250000
123,31.250000
124,31.250000
125,31.250000
126,35.156250
127,35.156250
128,35.156250
129,35.156250
130,35.156250
131,35.156250
132,35.156250
133,39.062500
134,39.062500
135,39.062500
136,39.062500
137,39.062500
138,42.968750
139,42.968750
140,42.968750
141,42.968750
142,42.968750
143,42.968750
144,42.968750
145,46.875000
146,46.875000
147,46.875000
148,46.875000
149,46.875000
150,46.875000
151,46.875000
152,50.781250
153,50.781250
154,50.781250
155,50.781250
156,54.687500
157,54.687500
158,54.687500
159,54.687500
160,54.687500
161,54.687500
162,54.687500
163,54.687500
164,58.593750
165,58.593750
166,58.593750
167,58.593750
168,58.593750
169,58.593750
170,58.593750
171,62.500000
172,62.500000
173,62.500000
174,62.500000
175,62.500000
176,62.500000
177,62.500000
178,66.406250
179,66.406250
180,66.406250
181,66.406250
182,66.406250
183,70.312500
184,70.312500
185,70.312500
186,70.312500
187,70.312500
188,70.312500
189,70.312500
190,70.312500
191,70.312500
192,74.218750
193,74.218750
194,74.218750
195,74.218750
196,74.218750
197,74.218750
198,74.218750
199,74.218750
200,78.125000
201,78.125000
202,78.125000
203,78.125000
204,78.125000
205,78.125000
206,78.125000
207,78.125000
208,82.031250
209,82.031250
210,82.031250
211,82.031250
212,82.031250
213,82.031250
214,82.031250
215,82.031250
216,82.031250
217,85.937500
218,85.937500
219,85.937500
220,85.937500
221,85.937500
222,85.937500
223,85.937500
224,85.937500
225,85.937500
226,85.937500
227,89.843750
228,89.843750
229,89.843750
230,89.843750
231,89.843750
232,89.843750
233,89.843750
234,89.843750
235,89.843750
236,89.843750
237,89.843750
238,89.843750
239,93.750000
240,93.750000
241,93.750000
242,89.843750
243,93.750000
244,93.750000
245,93.750000
246,93.750000
247,93.750000
248,93.750000
249,93.750000
250,93.750000
251,97.656250
252,97.656250
253,97.656250
254,97.656250
255,97.656250
256,97.656250
257,97.656250
258,97.656250
259,97.656250
260,97.656250
261,97.656250
262,97.656250
263,97.656250
264,97.656250
265,97.656250
266,101.562500
267,101.562500
268,97.656250
269,101.562500
270,101.562500
271,101.562500
272,101.562500
273,101.562500
274,101.562500
275,101.562500
276,101.562500
277,101.562500
278,101.562500
279,101.562500
280,101.562500
281,101.562500
282,101.562500
283,101.562500
284,101.562500
285,101.562500
286,105.468750
287,105.468750
288,105.468750
289,105.468750
290,105.468750
291,105.468750
292,105.468750
293,105.468750
294,105.468750
295,105.468750
296,105.468750
297,105.468750
298,105.468750
299,105.468750
300,105.468750
301,105.468750
302,105.468750
303,105.468750
304,105.468750
305,105.468750
306,105.468750
307,105.468750
308,105.468750
309,105.468750
310,105.468750
311,105.468750
312,105.468750
313,105.468750
314,105.468750
315,105.468750
316,105.468750
317,105.468750
318,105.468750
319,105.468750
320,105.468750
321,105.468750
322,105.468750
323,105.468750
324,105.468750
325,105.468750
326,105.468750
327,105.468750
328,105.468750
329,105.468750
330,105.468750
331,105.468750
332,105.468750
333,105.468750
334,105.468750
335,105.468750
336,105.468750
337,105.468750
338,105.468750
339,105.468750
340,105.468750
341,105.468750
342,105.468750
343,105.468750
344,105.468750
345,105.468750
346,105.468750
347,105.468750
348,105.468750
349,105.468750
350,105.468750
351,105.468750
352,105.468750
353,105.468750
354,105.468750
355,105.468750
356,105.468750
357,101.562500
358,105.468750
359,105.468750
360,101.562500
361,101.562500
362,101.562500
363,101.562500
364,101.562500
365,101.562500
366,101.562500
367,101.562500
368,101.562500
369,101.562500
370,101.562500
371,101.562500
372,101.562500
373,101.562500
374,101.562500
375,101.562500
376,101.562500
377,101.562500
378,101.562500
379,101.562500
380,101.562500
381,101.562500
382,97.656250
383,97.656250
384,97.656250
385,97.656250
386,97.656250
387,97.656250
388,97.656250
389,97.656250
390,97.656250
391,97.656250
392,97.656250
393,97.656250
394,93.750000
395,97.656250
396,93.750000
397,93.750000
398,93.750000
399,93.750000
400,93.750000
401,93.750000
402,93.750000
403,93.750000
404,93.750000
405,93.750000
406,93.750000
407,89.843750
408,89.843750
409,89.843750
410,89.843750
411,89.843750
412,89.843750
413,89.843750
414,89.843750
415,89.843750
416,89.843750
417,89.843750
418,85.937500
419,85.937500
420,85.937500
421,85.937500
422,85.937500
423,85.937500
424,85.937500
425,85.937500
426,85.937500
427,82.031250
428,82.031250
429,82.031250
430,82.031250
431,82.031250
432,82.031250
433,82.031250
434,82.031250
435,82.031250
436,78.125000
437,78.125000
438,78.125000
439,78.125000
440,78.125000
441,78.125000
442,78.125000
443,78.125000
444,78.125000
445,78.125000
446,78.125000
447,74.218750
448,74.218750
449,74.218750
450,74.218750
451,74.218750
452,74.218750
453,70.312500
454,70.312500
455,70.312500
456,70.312500
457,70.312500
458,70.312500
459,70.312500
460,66.406250
461,66.406250
462,66.406250
463,66.406250
464,66.406250
465,66.406250
466,66.406250
467,66.406250
468,62.500000
469,62.500000
470,62.500000
471,62.500000
472,62.500000
473,62.500000
474,62.500000
475,58.593750
476,58.593750
477,58.593750
478,58.593750
479,58.593750
480,58.593750
481,54.687500
482,54.687500
483,54.687500
484,54.687500
485,54.687500
486,54.687500
487,54.687500
488,50.781250
489,50.781250
490,50.781250
491,50.781250
492,50.781250
493,50.781250
494,46.875000
495,46.875000
496,46.875000
497,46.875000
498,46.875000
499,46.875000
500,46.875000
501,42.968750
502,42.968750
503,42.968750
504,42.968750
505,42.968750
506,39.062500
507,39.062500
508,39.062500
509,39.062500
510,39.062500
511,39.062500
512,39.062500
513,35.156250
514,35.156250
515,35.156250
516,35.156250
517,35.156250
518,31.250000
519,31.250000
520,31.250000
521,31.250000
522,31.250000
523,31.250000
524,27.343750
525,27.343750
526,27.343750
527,27.343750
528,23.437500
529,23.437500
530,23.437500
531,23.437500
532,23.437500
533,23.437500
534,19.531250
535,19.531250
536,19.531250
537,19.531250
538,19.531250
539,19.531250
540,15.625000
541,15.625000
542,15.625000
543,11.718750
544,15.625000
545,11.718750
546,11.718750
547,11.718750
548,11.718750
549,11.718750
550,7.812500
551,7.812500
552,7.812500
553,7.812500
554,7.812500
555,3.906250
556,3.906250
557,3.906250
558,3.906250
559,3.906250
560,0.000000
561,0.000000
562,0.000000
563,0.000000
564,0.000000
565,-3.906250
566,-3.906250
567,-3.906250
568,-3.906250
569,-3.906250
570,-7.812500
571,-7.812500
572,-7.812500
573,-7.812500
574,-11.718750
575,-11.718750
576,-11.718750
577,-11.718750
578,-11.718750
579,-11.718750
580,-15.625000
581,-15.625000
582,-15.625000
583,-15.625000
584,-19.531250
585,-19.531250
586,-19.531250
587,-19.531250
588,-19.531250
589,-23.437500
590,-23.437500
591,-23.437500
592,-23.437500
593,-23.437500
594,-23.437500
595,-27.343750
596,-27.343750
597,-27.343750
598,-27.343750
599,-31.250000
600,-31.250000
601,-31.250000
602,-31.250000
603,-35.156250
604,-35.156250
605,-35.156250
606,-35.156250
607,-35.156250
608,-35.156250
609,-39.062500
610,-39.062500
611,-39.062500
612,-39.062500
613,-42.968750
614,-42.968750
615,-42.968750
616,-42.968750
617,-42.968750
618,-42.968750
619,-46.875000
620,-46.875000
621,-46.875000
622,-46.875000
623,-46.875000
624,-50.781250
625,-50.781250
626,-50.781250
627,-50.781250
628,-54.687500
629,-54.687500
630,-54.687500
631,-54.687500
632,-54.687500
633,-58.593750
634,-58.593750
635,-58.593750
636,-58.593750
637,-58.593750
638,-58.593750
639,-58.593750
640,-62.500000
641,-62.500000
642,-62.500000
643,-62.500000
644,-66.406250
645,-66.406250
646,-66.406250
647,-66.406250
648,-66.406250
649,-66.406250
650,-70.312500
651,-70.312500
652,-70.312500
653,-70.312500
654,-70.312500
655,-74.218750
656,-74.218750
657,-74.218750
658,-74.218750
659,-74.218750
660,-78.125000
661,-78.125000
662,-78.125000
663,-78.125000
664,-78.125000
665,-82.031250
666,-82.031250
667,-82.031250
668,-82.031250
669,-82.031250
670,-82.031250
671,-85.937500
672,-85.937500
673,-85.937500
674,-85.937500
675,-85.937500
676,-89.843750
677,-89.843750
678,-89.843750
679,-89.843750
680,-89.843750
681,-89.843750
682,-93.750000
683,-93.750000
684,-93.750000
685,-93.750000
686,-93.750000
687,-93.750000
688,-93.750000
689,-97.656250
690,-97.656250
691,-97.656250
692,-97.656250
693,-97.656250
694,-97.656250
695,-101.562500
696,-101.562500
697,-101.562500
698,-101.562500
699,-101.562500
700,-101.562500
701,-101.562500
702,-105.468750
703,-105.468750
704,-105.468750
705,-105.468750
706,-105.468750
707,-105.468750
708,-109.375000
709,-109.375000
710,-109.375000
711,-109.375000
712,-109.375000
713,-109.375000
714,-109.375000
715,-109.375000
716,-113.281250
717,-113.281250
718,-113.281250
719,-113.281250
720,-113.281250
721,-113.281250
722,-117.187500
723,-113.281250
724,-117.187500
725,-117.187500
726,-117.187500
727,-117.187500
728,-117.187500
729,-117.187500
730,-117.187500
731,-117.187500
732,-121.093750
733,-121.093750
734,-121.093750
735,-121.093750
736,-121.093750
737,-121.093750
738,-121.093750
739,-121.093750
740,-121.093750
741,-121.093750
742,-125.000000
743,-125.000000
744,-125.000000
745,-125.000000
746,-125.000000
747,-125.000000
748,-125.000000
749,-125.000000
750,-125.000000
751,-125.000000
752,-125.000000
753,-128.906250
754,-128.906250
755,-128.906250
756,-128.906250
757,-128.906250
758,-128.906250
759,-128.906250
760,-128.906250
761,-128.906250
762,-128.906250
763,-128.906250
764,-128.906250
765,-132.812500
766,-132.812500
767,-132.812500
768,-132.812500
769,-132.812500
770,-132.812500
771,-132.812500
772,-132.812500
773,-132.812500
774,-132.812500
775,-132.812500
776,-132.812500
777,-132.812500
778,-136.718750
779,-132.812500
780,-136.718750
781,-132.812500
782,-136.718750
783,-136.718750
784,-136.718750
785,-136.718750
786,-136.718750
787,-136.718750
788,-136.718750
789,-136.718750
790,-136.718750
791,-136.718750
792,-136.718750
793,-136.718750
794,-136.718750
795,-136.718750
796,-136.718750
797,-136.718750
798,-136.718750
799,-136.718750
800,-136.718750
801,-136.718750
802,-136.718750
803,-136.718750
804,-136.718750
805,-136.718750
806,-136.718750
807,-136.718750
808,-140.625000
809,-136.718750
810,-140.625000
811,-140.625000
812,-140.625000
813,-136.718750
814,-136.718750
815,-136.718750
816,-136.718750
817,-136.718750
818,-136.718750
819,-136.718750
820,-136.718750
821,-140.625000
822,-140.625000
823,-140.625000
824,-140.625000
825,-136.718750
826,-136.718750
827,-136.718750
828,-136.718750
829,-136.718750
830,-136.718750
831,-136.718750
832,-136.718750
833,-136.718750
834,-136.718750
835,-136.718750
836,-136.718750
837,-136.718750
838,-136.718750
839,-136.718750
840,-136.718750
841,-136.718750
842,-136.718750
843,-136.718750
844,-136.718750
845,-136.718750
846,-136.718750
847,-136.718750
848,-136.718750
849,-136.718750
850,-136.718750
851,-136.718750
852,-136.718750
853,-132.812500
854,-132.812500
855,-132.812500
856,-132.812500
857,-132.812500
858,-132.812500
859,-132.812500
860,-132.812500
861,-132.812500
862,-132.812500
863,-132.812500
864,-132.812500
865,-132.812500
866,-132.812500
867,-132.812500
868,-132.812500
869,-132.812500
870,-132.812500
871,-128.906250
872,-128.906250
873,-128.906250
874,-128.906250
875,-128.906250
876,-128.906250
877,-128.906250
878,-128.906250
879,-128.906250
880,-128.906250
881,-128.906250
882,-125.000000
883,-125.000000
884,-125.000000
885,-125.000000
886,-125.000000
887,-125.000000
888,-125.000000
889,-125.000000
890,-125.000000
891,-121.093750
892,-125.000000
893,-121.093750
894,-121.093750
895,-121.093750
896,-121.093750
897,-121.093750
898,-121.093750
899,-121.093750
900,-121.093750
901,-117.187500
902,-117.187500
903,-117.187500
904,-117.187500
905,-117.187500
906,-117.187500
907,-117.187500
908,-117.187500
909,-113.281250
910,-113.281250
911,-113.281250
912,-113.281250
913,-113.281250
914,-113.281250
915,-113.281250
916,-109.375000
917,-109.375000
918,-109.375000
919,-109.375000
920,-109.375000
921,-109.375000
922,-109.375000
923,-109.375000
924,-105.468750
925,-105.468750
926,-105.468750
927,-105.468750
928,-105.468750
929,-105.468750
930,-105.468750
931,-105.468750
932,-101.562500
933,-101.562500
934,-101.562500
935,-101.562500
936,-101.562500
937,-97.656250
938,-97.656250
939,-97.656250
940,-97.656250
941,-97.656250
942,-97.656250
943,-97.656250
944,-97.656250
945,-93.750000
946,-93.750000
947,-93.750000
948,-93.750000
949,-93.750000
950,-89.843750
951,-89.843750
952,-89.843750
953,-89.843750
954,-89.843750
955,-89.843750
956,-85.937500
957,-89.843750
958,-85.937500
959,-85.937500
960,-85.937500
961,-85.937500
962,-85.937500
963,-82.031250
964,-82.031250
965,-82.031250
966,-82.031250
967,-82.031250
968,-78.125000
969,-78.125000
970,-78.125000
971,-78.125000
972,-78.125000
973,-74.218750
974,-74.218750
975,-74.218750
976,-74.218750
977,-74.218750
978,-74.218750
979,-70.312500
980,-70.312500
981,-70.312500
982,-70.312500
983,-70.312500
984,-70.312500
985,-66.406250
986,-66.406250
987,-66.406250
988,-66.406250
989,-66.406250
990,-62.500000
991,-62.500000
992,-62.500000
993,-62.500000
994,-62.500000
995,-58.593750
996,-58.593750
997,-58.593750
998,-58.593750
999,-58.593750
1000,-54.687500
1001,-54.687500
1002,-54.687500
1003,-54.687500
1004,-54.687500
1005,-50.781250
1006,-50.781250
1007,-50.781250
1008,-50.781250
1009,-50.781250
1010,-46.875000
1011,-46.875000
1012,-46.875000
1013,-46.875000
1014,-46.875000
1015,-42.968750
1016,-42.968750
1017,-42.968750
1018,-42.968750
1019,-42.968750
1020,-39.062500
1021,-39.062500
1022,-39.062500
1023,-39.062500
1024,-39.062500
1025,-35.156250
1026,-35.156250
1027,-35.156250
1028,-35.156250
1029,-35.156250
1030,-31.250000
1031,-31.250000
1032,-31.250000
1033,-31.250000
1034,-31.250000
1035,-27.343750
1036,-27.343750
1037,-27.343750
1038,-27.343750
1039,-27.343750
1040,-27.343750
1041,-23.437500
1042,-23.437500
1043,-23.437500
1044,-23.437500
1045,-19.531250
1046,-19.531250
1047,-19.531250
1048,-19.531250
1049,-15.625000
1050,-15.625000
1051,-15.625000
1052,-15.625000
1053,-15.625000
1054,-15.625000
1055,-11.718750
1056,-11.718750
1057,-11.718750
1058,-11.718750
1059,-7.812500
1060,-7.812500
1061,-7.812500
1062,-7.812500
1063,-7.812500
1064,-7.812500
1065,-3.906250
1066,-3.906250
1067,-3.906250
1068,-3.906250
1069,-3.906250
1070,0.000000
1071,0.000000
1072,0.000000
1073,0.000000
1074,0.000000
1075,3.906250
1076,3.906250
1077,3.906250
1078,3.906250
1079,3.906250
1080,3.906250
1081,7.812500
1082,7.812500
1083,7.812500
1084,7.812500
1085,11.718750
1086,7.812500
1087,11.718750
1088,11.718750
1089,11.718750
1090,11.718750
1091,15.625000
1092,15.625000
1093,15.625000
1094,15.625000
1095,15.625000
1096,15.625000
1097,19.531250
1098,19.531250
1099,19.531250
1100,19.531250
1101,23.437500
1102,23.437500
1103,23.437500
1104,23.437500
1105,23.437500
1106,27.343750
1107,27.343750
1108,27.343750
1109,27.343750
1110,27.343750
1111,27.343750
1112,31.250000
1113,31.250000
1114,31.250000
1115,31.250000
1116,31.250000
1117,31.250000
1118,35.156250
1119,35.156250
1120,35.156250
1121,35.156250
1122,35.156250
1123,35.156250
1124,39.062500
1125,39.062500
1126,39.062500
1127,39.062500
1128,39.062500
1129,42.968750
1130,42.968750
1131,42.968750
1132,42.968750
1133,42.968750
1134,42.968750
1135,42.968750
1136,42.968750
1137,46.875000
1138,46.875000
1139,46.875000
1140,50.781250
1141,50.781250
1142,50.781250
1143,50.781250
1144,50.781250
1145,50.781250
1146,50.781250
1147,50.781250
1148,54.687500
1149,54.687500
1150,54.687500
1151,54.687500
1152,54.687500
1153,54.687500
1154,58.593750
1155,58.593750
1156,58.593750
1157,58.593750
1158,58.593750
1159,58.593750
1160,62.500000
1161,62.500000
1162,62.500000
1163,62.500000
1164,62.500000
1165,62.500000
1166,62.500000
1167,66.406250
1168,66.406250
1169,66.406250
1170,66.406250
1171,66.406250
1172,66.406250
1173,66.406250
1174,66.406250
1175,66.406250
1176,70.312500
1177,70.312500
1178,70.312500
1179,70.312500
1180,70.312500
1181,70.312500
1182,74.218750
1183,74.218750
1184,74.218750
1185,74.218750
1186,74.218750
1187,74.218750
1188,74.218750
1189,78.125000
1190,78.125000
1191,78.125000
1192,78.125000
1193,78.125000
1194,78.125000
1195,78.125000
1196,78.125000
1197,78.125000
1198,82.031250
1199,82.031250
1200,82.031250
1201,82.031250
1202,82.031250
1203,82.031250
1204,82.031250
1205,82.031250
1206,82.031250
1207,82.031250
1208,82.031250
1209,85.937500
1210,85.937500
1211,85.937500
1212,85.937500
1213,85.937500
1214,85.937500
1215,85.937500
1216,85.937500
1217,85.937500
1218,85.937500
1219,89.843750
1220,89.843750
1221,89.843750
1222,89.843750
1223,89.843750
1224,89.843750
1225,89.843750
1226,89.843750
1227,89.843750
1228,89.843750
1229,93.750000
1230,93.750000
1231,93.750000
1232,93.750000
1233,93.750000
1234,93.750000
1235,93.750000
1236,93.750000
1237,93.750000
1238,93.750000
1239,93.750000
1240,93.750000
1241,93.750000
1242,97.656250
1243,97.656250
1244,97.656250
1245,97.656250
1246,97.656250
1247,97.656250
1248,97.656250
1249,97.656250
1250,97.656250
1251,97.656250
1252,97.656250
1253,97.656250
1254,97.656250
1255,97.656250
1256,97.656250
1257,97.656250
1258,97.656250
1259,101.562500
1260,101.562500
1261,101.562500
1262,101.562500
1263,101.562500
1264,101.562500
1265,101.562500
1266,101.562500
1267,101.562500
1268,101.562500
1269,101.562500
1270,101.562500
1271,101.562500
1272,101.562500
1273,101.562500
1274,101.562500
1275,101.562500
1276,101.562500
1277,101.562500
1278,101.562500
1279,101.562500
1280,105.468750
1281,105.468750
1282,105.468750
1283,105.468750
1284,105.468750
1285,105.468750
1286,105.468750
1287,105.468750
1288,105.468750
1289,105.468750
1290,105.468750
1291,105.468750
1292,105.468750
1293,105.468750
1294,105.468750
1295,105.468750
1296,105.468750
1297,105.468750
1298,105.468750
1299,105.468750
1300,105.468750
1301,105.468750
1302,105.468750
1303,105.468750
1304,105.468750
1305,105.468750
1306,105.468750
1307,105.468750
1308,105.468750
1309,105.468750
1310,105.468750
1311,105.468750
1312,105.468750
1313,105.468750
1314,105.468750
1315,105.468750
1316,105.468750
1317,105.468750
1318,105.468750
1319,105.468750
1320,105.468750
1321,105.468750
1322,105.468750
1323,105.468750
1324,105.468750
1325,105.468750
1326,105.468750
1327,105.468750
1328,105.468750
1329,105.468750
1330,105.468750
1331,105.468750
1332,105.468750
1333,105.468750
1334,105.468750
1335,105.468750
1336,105.468750
1337,105.468750
1338,105.468750
1339,105.468750
1340,105.468750
1341,105.468750
1342,101.562500
1343,105.468750
1344,105.468750
1345,101.562500
1346,105.468750
1347,101.562500
1348,101.562500
1349,101.562500
1350,101.562500
1351,101.562500
1352,101.562500
1353,101.562500
1354,101.562500
1355,101.562500
1356,101.562500
1357,101.562500
1358,101.562500
1359,101.562500
1360,101.562500
1361,101.562500
1362,101.562500
1363,101.562500
1364,101.562500
1365,101.562500
1366,101.562500
1367,101.562500
1368,97.656250
1369,97.656250
1370,97.656250
1371,97.656250
1372,97.656250
1373,97.656250
1374,97.656250
1375,97.656250
1376,97.656250
1377,97.656250
1378,97.656250
1379,97.656250
1380,97.656250
1381,97.656250
1382,97.656250
1383,97.656250
1384,97.656250
1385,93.750000
1386,93.750000
1387,93.750000
1388,93.750000
1389,93.750000
1390,93.750000
1391,93.750000
1392,93.750000
1393,93.750000
1394,93.750000
1395,93.750000
1396,89.843750
1397,89.843750
1398,89.843750
1399,93.750000
1400,93.750000
1401,89.843750
1402,89.843750
1403,89.843750
1404,89.843750
1405,89.843750
1406,85.937500
1407,85.937500
1408,85.937500
1409,85.937500
1410,85.937500
1411,85.937500
1412,85.937500
1413,85.937500
1414,85.937500
1415,85.937500
1416,82.031250
1417,82.031250
1418,82.031250
1419,82.031250
1420,82.031250
1421,82.031250
1422,82.031250
1423,82.031250
1424,82.031250
1425,82.031250
1426,82.031250
1427,78.125000
1428,78.125000
1429,78.125000
1430,78.125000
1431,78.125000
1432,78.125000
1433,78.125000
1434,78.125000
1435,78.125000
1436,74.218750
1437,74.218750
1438,74.218750
1439,74.218750
1440,74.218750
1441,74.218750
1442,74.218750
1443,74.218750
1444,70.312500
1445,70.312500
1446,70.312500
1447,70.312500
1448,70.312500
1449,70.312500
1450,70.312500
1451,66.406250
1452,66.406250
1453,66.406250
1454,66.406250
1455,66.406250
1456,66.406250
1457,62.500000
1458,62.500000
1459,62.500000
1460,62.500000
1461,62.500000
1462,62.500000
1463,62.500000
1464,58.593750
1465,58.593750
1466,58.593750
1467,58.593750
1468,58.593750
1469,58.593750
1470,58.593750
1471,58.593750
1472,54.687500
1473,54.687500
1474,54.687500
1475,54.687500
1476,54.687500
1477,54.687500
1478,50.781250
1479,50.781250
1480,50.781250
1481,50.781250
1482,50.781250
1483,50.781250
1484,46.875000
1485,46.875000
1486,46.875000
1487,46.875000
1488,46.875000
1489,46.875000
1490,42.968750
1491,42.968750
1492,42.968750
1493,42.968750
1494,42.968750
1495,39.062500
1496,39.062500
1497,39.062500
1498,39.062500
1499,39.062500
1500,39.062500
1501,35.156250
1502,35.156250
1503,35.156250
1504,35.156250
1505,35.156250
1506,35.156250
1507,35.156250
1508,31.250000
1509,31.250000
1510,31.250000
1511,31.250000
1512,31.250000
1513,27.343750
1514,27.343750
1515,27.343750
1516,27.343750
1517,27.343750
1518,23.437500
1519,23.437500
1520,23.437500
1521,23.437500
1522,19.531250
1523,19.531250
1524,19.531250
1525,19.531250
1526,19.531250
1527,19.531250
1528,19.531250
1529,15.625000
1530,15.625000
1531,15.625000
1532,15.625000
1533,15.625000
1534,11.718750
1535,11.718750
1536,11.718750
1537,11.718750
1538,11.718750
1539,11.718750
1540,7.812500
1541,7.812500
1542,7.812500
1543,7.812500
1544,3.906250
1545,3.906250
1546,3.906250
1547,3.906250
1548,3.906250
1549,3.906250
1550,0.000000
1551,0.000000
1552,0.000000
1553,0.000000
1554,-3.906250
1555,-3.906250
1556,-3.906250
1557,-3.906250
1558,-3.906250
1559,-7.812500
1560,-7.812500
1561,-7.812500
1562,-7.812500
1563,-11.718750
1564,-11.718750
1565,-11.718750
1566,-11.718750
1567,-11.718750
1568,-11.718750
1569,-11.718750
1570,-15.625000
1571,-15.625000
1572,-15.625000
1573,-15.625000
1574,-19.531250
1575,-19.531250
1576,-19.531250
1577,-19.531250
1578,-19.531250
1579,-19.531250
1580,-23.437500
1581,-23.437500
1582,-23.437500
1583,-23.437500
1584,-27.343750
1585,-27.343750
1586,-27.343750
1587,-27.343750
1588,-27.343750
1589,-27.343750
1590,-31.250000
1591,-31.250000
1592,-31.250000
1593,-31.250000
1594,-35.156250
1595,-35.156250
1596,-35.156250
1597,-35.156250
1598,-39.062500
1599,-39.062500
1600,-39.062500
1601,-39.062500
1602,-39.062500
1603,-39.062500
1604,-42.968750
1605,-42.968750
1606,-42.968750
1607,-42.968750
1608,-46.875000
1609,-46.875000
1610,-46.875000
1611,-46.875000
1612,-46.875000
1613,-50.781250
1614,-50.781250
1615,-50.781250
1616,-50.781250
1617,-50.781250
1618,-50.781250
1619,-54.687500
1620,-54.687500
1621,-54.687500
1622,-54.687500
1623,-54.687500
1624,-58.593750
1625,-58.593750
1626,-58.593750
1627,-58.593750
1628,-58.593750
1629,-62.500000
1630,-62.500000
1631,-62.500000
1632,-62.500000
1633,-62.500000
1634,-66.406250
1635,-66.406250
1636,-66.406250
1637,-66.406250
1638,-70.312500
1639,-66.406250
1640,-70.312500
1641,-70.312500
1642,-70.312500
1643,-70.312500
1644,-70.312500
1645,-74.218750
1646,-74.218750
1647,-74.218750
1648,-74.218750
1649,-74.218750
1650,-78.125000
1651,-78.125000
1652,-78.125000
1653,-78.125000
1654,-78.125000
1655,-78.125000
1656,-82.031250
1657,-82.031250
1658,-82.031250
1659,-82.031250
1660,-82.031250
1661,-82.031250
1662,-85.937500
1663,-85.937500
1664,-85.937500
1665,-85.937500
1666,-85.937500
1667,-89.843750
1668,-89.843750
1669,-89.843750
1670,-89.843750
1671,-89.843750
1672,-89.843750
1673,-89.843750
1674,-89.843750
1675,-93.750000
1676,-93.750000
1677,-93.750000
1678,-93.750000
1679,-93.750000
1680,-97.656250
1681,-97.656250
1682,-97.656250
1683,-97.656250
1684,-97.656250
1685,-97.656250
1686,-101.562500
1687,-101.562500
1688,-101.562500
1689,-101.562500
1690,-101.562500
1691,-101.562500
1692,-101.562500
1693,-101.562500
1694,-105.468750
1695,-105.468750
1696,-105.468750
1697,-105.468750
1698,-105.468750
1699,-105.468750
1700,-109.375000
1701,-109.375000
1702,-109.375000
1703,-109.375000
1704,-109.375000
1705,-109.375000
1706,-109.375000
1707,-109.375000
1708,-113.281250
1709,-113.281250
1710,-113.281250
1711,-113.281250
1712,-113.281250
1713,-113.281250
1714,-113.281250
1715,-117.187500
1716,-117.187500
1717,-117.187500
1718,-117.187500
1719,-117.187500
1720,-117.187500
1721,-117.187500
1722,-117.187500
1723,-117.187500
1724,-121.093750
1725,-121.093750
1726,-121.093750
1727,-121.093750
1728,-121.093750
1729,-121.093750
1730,-121.093750
1731,-121.093750
1732,-125.000000
1733,-121.093750
1734,-125.000000
1735,-125.000000
1736,-125.000000
1737,-125.000000
1738,-125.000000
1739,-125.000000
1740,-125.000000
1741,-125.000000
1742,-128.906250
1743,-128.906250
1744,-128.906250
1745,-128.906250
1746,-128.906250
1747,-128.906250
1748,-128.906250
1749,-128.906250
1750,-128.906250
1751,-128.906250
1752,-128.906250
1753,-132.812500
1754,-132.812500
1755,-132.812500
1756,-132.812500
1757,-132.812500
1758,-132.812500
1759,-132.812500
1760,-132.812500
1761,-132.812500
1762,-132.812500
1763,-132.812500
1764,-132.812500
1765,-132.812500
1766,-132.812500
1767,-132.812500
1768,-132.812500
1769,-132.812500
1770,-132.812500
1771,-136.718750
1772,-136.718750
1773,-136.718750
1774,-136.718750
1775,-136.718750
1776,-136.718750
1777,-136.718750
1778,-136.718750
1779,-136.718750
1780,-136.718750
1781,-136.718750
1782,-136.718750
1783,-136.718750
1784,-136.718750
1785,-136.718750
1786,-136.718750
1787,-136.718750
1788,-136.718750
1789,-136.718750
1790,-136.718750
1791,-136.718750
1792,-136.718750
1793,-136.718750
1794,-136.718750
1795,-136.718750
1796,-136.718750
1797,-136.718750
1798,-136.718750
1799,-136.718750
1800,-136.718750
1801,-136.718750
1802,-136.718750
1803,-136.718750
1804,-136.718750
1805,-136.718750
1806,-136.718750
1807,-136.718750
1808,-136.718750
1809,-136.718750
1810,-136.718750
1811,-136.718750
1812,-136.718750
1813,-136.718750
1814,-136.718750
1815,-136.718750
1816,-136.718750
1817,-136.718750
1818,-136.718750
1819,-136.718750
1820,-136.718750
1821,-136.718750
1822,-136.718750
1823,-136.718750
1824,-136.718750
1825,-136.718750
1826,-136.718750
1827,-136.718750
1828,-136.718750
1829,-136.718750
1830,-136.718750
1831,-136.718750
1832,-136.718750
1833,-136.718750
1834,-136.718750
1835,-136.718750
1836,-136.718750
1837,-136.718750
1838,-132.812500
1839,-132.812500
1840,-132.812500
1841,-132.812500
1842,-132.812500
1843,-132.812500
1844,-132.812500
1845,-132.812500
1846,-132.812500
1847,-132.812500
1848,-132.812500
1849,-132.812500
1850,-132.812500
1851,-132.812500
1852,-132.812500
1853,-132.812500
1854,-132.812500
1855,-132.812500
1856,-132.812500
1857,-128.906250
1858,-128.906250
1859,-128.906250
1860,-128.906250
1861,-128.906250
1862,-128.906250
1863,-128.906250
1864,-128.906250
1865,-128.906250
1866,-128.906250
1867,-128.906250
1868,-128.906250
1869,-128.906250
1870,-125.000000
1871,-125.000000
1872,-125.000000
1873,-125.000000
1874,-125.000000
1875,-125.000000
1876,-125.000000
1877,-121.093750
1878,-125.000000
1879,-125.000000
1880,-125.000000
1881,-121.093750
1882,-121.093750
1883,-121.093750
1884,-121.093750
1885,-121.093750
1886,-121.093750
1887,-121.093750
1888,-121.093750
1889,-121.093750
1890,-117.187500
1891,-117.187500
1892,-117.187500
1893,-117.187500
1894,-117.187500
1895,-117.187500
1896,-117.187500
1897,-113.281250
1898,-113.281250
1899,-113.281250
1900,-113.281250
1901,-113.281250
1902,-113.281250
1903,-113.281250
1904,-113.281250
1905,-109.375000
1906,-109.375000
1907,-109.375000
1908,-109.375000
1909,-109.375000
1910,-109.375000
1911,-109.375000
1912,-109.375000
1913,-109.375000
1914,-109.375000
1915,-105.468750
1916,-105.468750
1917,-105.468750
1918,-105.468750
1919,-105.468750
1920,-101.562500
1921,-101.562500
1922,-101.562500
1923,-101.562500
1924,-101.562500
1925,-101.562500
1926,-97.656250
1927,-97.656250
1928,-97.656250
1929,-97.656250
1930,-97.656250
1931,-97.656250
1932,-97.656250
1933,-93.750000
1934,-93.750000
1935,-93.750000
1936,-93.750000
1937,-93.750000
1938,-93.750000
1939,-93.750000
1940,-89.843750
1941,-89.843750
1942,-89.843750
1943,-89.843750
1944,-89.843750
1945,-89.843750
1946,-85.937500
1947,-85.937500
1948,-85.937500
1949,-85.937500
1950,-85.937500
1951,-82.031250
1952,-82.031250
1953,-82.031250
1954,-82.031250
1955,-82.031250
1956,-82.031250
1957,-78.125000
1958,-78.125000
1959,-78.125000
1960,-78.125000
1961,-78.125000
1962,-78.125000
1963,-74.218750
1964,-74.218750
1965,-74.218750
1966,-74.218750
1967,-74.218750
1968,-70.312500
1969,-70.312500
1970,-70.312500
1971,-70.312500
1972,-70.312500
1973,-66.406250
1974,-66.406250
1975,-66.406250
1976,-66.406250
1977,-66.406250
1978,-66.406250
1979,-62.500000
1980,-62.500000
1981,-62.500000
1982,-62.500000
1983,-62.500000
1984,-62.500000
1985,-58.593750
1986,-58.593750
1987,-58.593750
1988,-58.593750
1989,-58.593750
1990,-54.687500
1991,-54.687500
1992,-54.687500
1993,-54.687500
1994,-50.781250
1995,-50.781250
1996,-50.781250
1997,-50.781250
1998,-50.781250
1999,-50.781250
2000,-46.875000
2001,-46.875000
2002,-46.875000
2003,-46.875000
2004,-42.968750
2005,-42.968750
2006,-42.968750
2007,-42.968750
2008,-42.968750
2009,-42.968750
2010,-39.062500
2011,-39.062500
2012,-39.062500
2013,-39.062500
2014,-35.156250
2015,-35.156250
2016,-35.156250
2017,-35.156250
2018,-35.156250
2019,-35.156250
2020,-31.250000
2021,-31.250000
2022,-31.250000
2023,-31.250000
2024,-31.250000
2025,-27.343750
2026,-27.343750
2027,-27.343750
2028,-27.343750
2029,-27.343750
2030,-23.437500
2031,-23.437500
2032,-23.437500
2033,-23.437500
2034,-19.531250
2035,-19.531250
2036,-19.531250
2037,-19.531250
2038,-19.531250
2039,-19.531250
2040,-15.625000
2041,-15.625000
2042,-15.625000
2043,-15.625000
2044,-11.718750
2045,-11.718750
2046,-11.718750
2047,-11.718750
2048,-11.718750
2049,-11.718750
2050,-7.812500
2051,-7.812500
2052,-7.812500
2053,-7.812500
2054,-3.906250
2055,-3.906250
2056,-3.906250
2057,-3.906250
2058,-3.906250
2059,0.000000
2060,0.000000
2061,0.000000
2062,0.000000
2063,0.000000
2064,0.000000
2065,3.906250
2066,3.906250
2067,3.906250
2068,3.906250
2069,7.812500
2070,7.812500
2071,7.812500
2072,7.812500
2073,7.812500
2074,7.812500
2075,11.718750
2076,11.718750
2077,11.718750
2078,11.718750
2079,15.625000
2080,15.625000
2081,15.625000
2082,15.625000
2083,15.625000
2084,15.625000
2085,19.531250
2086,19.531250
2087,19.531250
2088,19.531250
2089,19.531250
2090,23.437500
2091,23.437500
2092,23.437500
2093,23.437500
2094,23.437500
2095,27.343750
2096,27.343750
2097,27.343750
2098,27.343750
2099,27.343750
2100,27.343750
2101,31.250000
2102,31.250000
2103,31.250000
2104,31.250000
2105,31.250000
2106,31.250000
2107,31.250000
2108,35.156250
2109,35.156250
2110,35.156250
2111,35.156250
2112,39.062500
2113,39.062500
2114,39.062500
2115,39.062500
2116,39.062500
2117,39.062500
2118,42.968750
2119,42.968750
2120,42.968750
2121,42.968750
2122,42.968750
2123,42.968750
2124,42.968750
2125,42.968750
2126,46.875000
2127,46.875000
2128,46.875000
2129,46.875000
2130,50.781250
2131,50.781250
2132,50.781250
2133,50.781250
2134,50.781250
2135,50.781250
2136,50.781250
2137,54.687500
2138,54.687500
2139,54.687500
2140,54.687500
2141,54.687500
2142,54.687500
2143,58.593750
2144,58.593750
2145,58.593750
2146,58.593750
2147,58.593750
2148,58.593750
2149,58.593750
2150,62.500000
2151,62.500000
2152,62.500000
2153,62.500000
2154,62.500000
2155,62.500000
2156,62.500000
2157,66.406250
2158,66.406250
2159,66.406250
2160,66.406250
2161,66.406250
2162,66.406250
2163,70.312500
2164,66.406250
2165,70.312500
2166,70.312500
2167,70.312500
2168,70.312500
2169,70.312500
2170,70.312500
2171,70.312500
2172,70.312500
2173,74.218750
2174,74.218750
2175,74.218750
2176,74.218750
2177,74.218750
2178,74.218750
2179,74.218750
2180,78.125000
2181,78.125000
2182,78.125000
2183,78.125000
2184,78.125000
2185,78.125000
2186,78.125000
2187,78.125000
2188,82.031250
2189,82.031250
2190,82.031250
2191,82.031250
2192,82.031250
2193,82.031250
2194,82.031250
2195,82.031250
2196,82.031250
2197,85.937500
2198,82.031250
2199,85.937500
2200,85.937500
2201,85.937500
2202,85.937500
2203,85.937500
2204,85.937500
2205,85.937500
2206,85.937500
2207,89.843750
2208,89.843750
2209,89.843750
2210,89.843750
2211,89.843750
2212,89.843750
2213,89.843750
2214,89.843750
2215,89.843750
2216,89.843750
2217,89.843750
2218,93.750000
2219,93.750000
2220,93.750000
2221,93.750000
2222,93.750000
2223,93.750000
2224,93.750000
2225,93.750000
2226,93.750000
2227,93.750000
2228,93.750000
2229,97.656250
2230,93.750000
2231,97.656250
2232,97.656250
2233,97.656250
2234,97.656250
2235,97.656250
2236,97.656250
2237,97.656250
2238,97.656250
2239,97.656250
2240,97.656250
2241,97.656250
2242,97.656250
2243,97.656250
2244,97.656250
2245,97.656250
2246,97.656250
2247,97.656250
2248,101.562500
2249,101.562500
2250,101.562500
2251,101.562500
2252,101.562500
2253,101.562500
2254,101.562500
2255,101.562500
2256,101.562500
2257,101.562500
2258,101.562500
2259,101.562500
2260,101.562500
2261,101.562500
2262,101.562500
2263,101.562500
2264,101.562500
2265,101.562500
2266,101.562500
2267,101.562500
2268,101.562500
2269,101.562500
2270,101.562500
2271,105.468750
2272,101.562500
2273,105.468750
2274,105.468750
2275,105.468750
2276,105.468750
2277,105.468750
2278,105.468750
2279,105.468750
2280,105.468750
2281,105.468750
2282,105.468750
2283,105.468750
2284,105.468750
2285,105.468750
2286,105.468750
2287,105.468750
2288,105.468750
2289,105.468750
2290,105.468750
2291,105.468750
2292,105.468750
2293,105.468750
2294,105.468750
2295,105.468750
2296,105.468750
2297,105.468750
2298,105.468750
2299,105.468750
2300,105.468750
2301,105.468750
2302,105.468750
2303,105.468750
2304,105.468750
2305,105.468750
2306,105.468750
2307,105.468750
2308,105.468750
2309,105.468750
2310,105.468750
2311,105.468750
2312,105.468750
2313,105.468750
2314,105.468750
2315,105.468750
2316,105.468750
2317,105.468750
2318,105.468750
2319,105.468750
2320,105.468750
2321,105.468750
2322,105.468750
2323,105.468750
2324,105.468750
2325,105.468750
2326,101.562500
2327,105.468750
2328,101.562500
2329,105.468750
2330,101.562500
2331,105.468750
2332,105.468750
2333,105.468750
2334,101.562500
2335,105.468750
2336,105.468750
2337,101.562500
2338,101.562500
2339,101.562500
2340,101.562500
2341,101.562500
2342,101.562500
2343,101.562500
2344,101.562500
2345,101.562500
2346,101.562500
2347,101.562500
2348,101.562500
2349,101.562500
2350,101.562500
2351,101.562500
2352,101.562500
2353,101.562500
2354,101.562500
2355,101.562500
2356,101.562500
2357,97.656250
2358,97.656250
2359,97.656250
2360,97.656250
2361,97.656250
2362,97.656250
2363,97.656250
2364,97.656250
2365,97.656250
2366,97.656250
2367,97.656250
2368,97.656250
2369,97.656250
2370,97.656250
2371,97.656250
2372,97.656250
2373,93.750000
2374,93.750000
2375,93.750000
2376,93.750000
2377,93.750000
2378,93.750000
2379,93.750000
2380,93.750000
2381,93.750000
2382,93.750000
2383,93.750000
2384,93.750000
2385,89.843750
2386,89.843750
2387,89.843750
2388,89.843750
2389,89.843750
2390,89.843750
2391,89.843750
2392,89.843750
2393,89.843750
2394,89.843750
2395,89.843750
2396,89.843750
2397,89.843750
2398,85.937500
2399,85.937500
2400,85.937500
2401,85.937500
2402,85.937500
2403,85.937500
2404,85.937500
2405,85.937500
2406,82.031250
2407,85.937500
2408,82.031250
2409,82.031250
2410,82.031250
2411,82.031250
2412,82.031250
2413,82.031250
2414,82.031250
2415,82.031250
2416,82.031250
2417,82.031250
2418,78.125000
2419,78.125000
2420,78.125000
2421,78.125000
2422,78.125000
2423,78.125000
2424,78.125000
2425,78.125000
2426,74.218750
2427,74.218750
2428,74.218750
2429,74.218750
2430,74.218750
2431,74.218750
2432,74.218750
2433,70.312500
2434,70.312500
2435,70.312500
2436,70.312500
2437,70.312500
2438,70.312500
2439,70.312500
2440,66.406250
2441,66.406250
2442,66.406250
2443,66.406250
2444,66.406250
2445,66.406250
2446,66.406250
2447,66.406250
2448,62.500000
2449,62.500000
2450,62.500000
2451,62.500000
2452,62.500000
2453,62.500000
2454,58.593750
2455,58.593750
2456,58.593750
2457,58.593750
2458,58.593750
2459,58.593750
2460,58.593750
2461,58.593750
2462,54.687500
2463,54.687500
2464,54.687500
2465,54.687500
2466,54.687500
2467,50.781250
2468,50.781250
2469,50.781250
2470,50.781250
2471,50.781250
2472,50.781250
2473,50.781250
2474,46.875000
2475,46.875000
2476,46.875000
2477,46.875000
2478,46.875000
2479,46.875000
2480,42.968750
2481,42.968750
2482,42.968750
2483,42.968750
2484,42.968750
2485,42.968750
2486,39.062500
2487,39.062500
2488,39.062500
2489,39.062500
2490,39.062500
2491,39.062500
2492,35.156250
2493,35.156250
2494,35.156250
2495,35.156250
2496,35.156250
2497,31.250000
2498,31.250000
2499,31.250000
2500,31.250000
2501,31.250000
2502,31.250000
2503,27.343750
2504,27.343750
2505,27.343750
2506,27.343750
2507,27.343750
2508,23.437500
2509,23.437500
2510,23.437500
2511,23.437500
2512,23.437500
2513,19.531250
2514,19.531250
2515,19.531250
2516,19.531250
2517,19.531250
2518,15.625000
2519,15.625000
2520,15.625000
2521,15.625000
2522,15.625000
2523,11.718750
2524,11.718750
2525,11.718750
2526,11.718750
2527,11.718750
2528,11.718750
2529,7.812500
2530,7.812500
2531,7.812500
2532,7.812500
2533,7.812500
2534,3.906250
2535,3.906250
2536,3.906250
2537,3.906250
2538,3.906250
2539,0.000000
2540,0.000000
2541,0.000000
2542,0.000000
2543,-3.906250
2544,-3.906250
2545,-3.906250
2546,-3.906250
2547,-3.906250
2548,-3.906250
2549,-7.812500
2550,-7.812500
2551,-7.812500
2552,-7.812500
2553,-11.718750
2554,-11.718750
2555,-11.718750
2556,-11.718750
2557,-11.718750
2558,-11.718750
2559,-15.625000
2560,-15.625000
2561,-15.625000
2562,-15.625000
2563,-19.531250
2564,-19.531250
2565,-19.531250
2566,-19.531250
2567,-19.531250
2568,-19.531250
2569,-23.437500
2570,-23.437500
2571,-23.437500
2572,-23.437500
2573,-27.343750
2574,-27.343750
2575,-27.343750
2576,-27.343750
2577,-27.343750
2578,-31.250000
2579,-31.250000
2580,-31.250000
2581,-31.250000
2582,-31.250000
2583,-31.250000
2584,-35.156250
2585,-35.156250
2586,-35.156250
2587,-35.156250
2588,-35.156250
2589,-39.062500
2590,-39.062500
2591,-39.062500
2592,-39.062500
2593,-42.968750
2594,-42.968750
2595,-42.968750
2596,-42.968750
2597,-42.968750
2598,-42.968750
2599,-46.875000
2600,-46.875000
2601,-46.875000
2602,-50.781250
2603,-46.875000
2604,-50.781250
2605,-50.781250
2606,-50.781250
2607,-50.781250
2608,-54.687500
2609,-54.687500
2610,-54.687500
2611,-54.687500
2612,-54.687500
2613,-58.593750
2614,-58.593750
2615,-58.593750
2616,-58.593750
2617,-58.593750
2618,-62.500000
2619,-62.500000
2620,-62.500000
2621,-62.500000
2622,-62.500000
2623,-62.500000
2624,-66.406250
2625,-66.406250
2626,-66.406250
2627,-66.406250
2628,-66.406250
2629,-70.312500
2630,-70.312500
2631,-70.312500
2632,-70.312500
2633,-70.312500
2634,-74.218750
2635,-74.218750
2636,-74.218750
2637,-74.218750
2638,-74.218750
2639,-78.125000
2640,-78.125000
2641,-78.125000
2642,-78.125000
2643,-78.125000
2644,-78.125000
2645,-78.125000
2646,-82.031250
2647,-82.031250
2648,-82.031250
2649,-82.031250
2650,-85.937500
2651,-85.937500
2652,-85.937500
2653,-85.937500
2654,-85.937500
2655,-85.937500
2656,-85.937500
2657,-89.843750
2658,-89.843750
2659,-89.843750
2660,-89.843750
2661,-89.843750
2662,-93.750000
2663,-93.750000
2664,-93.750000
2665,-93.750000
2666,-93.750000
2667,-93.750000
2668,-97.656250
2669,-97.656250
2670,-97.656250
2671,-97.656250
2672,-97.656250
2673,-97.656250
2674,-101.562500
2675,-101.562500
2676,-101.562500
2677,-101.562500
2678,-101.562500
2679,-101.562500
2680,-101.562500
2681,-105.468750
2682,-105.468750
2683,-105.468750
2684,-105.468750
2685,-105.468750
2686,-105.468750
2687,-105.468750
2688,-109.375000
2689,-109.375000
2690,-109.375000
2691,-109.375000
2692,-109.375000
2693,-109.375000
2694,-109.375000
2695,-109.375000
2696,-113.281250
2697,-113.281250
2698,-113.281250
2699,-113.281250
2700,-113.281250
2701,-113.281250
2702,-117.187500
2703,-117.187500
2704,-117.187500
2705,-117.187500
2706,-117.187500
2707,-117.187500
2708,-117.187500
2709,-117.187500
2710,-121.093750
2711,-121.093750
2712,-121.093750
2713,-121.093750
2714,-121.093750
2715,-121.093750
2716,-121.093750
2717,-121.093750
2718,-121.093750
2719,-121.093750
2720,-121.093750
2721,-125.000000
2722,-125.000000
2723,-125.000000
2724,-125.000000
2725,-125.000000
2726,-125.000000
2727,-125.000000
2728,-125.000000
2729,-125.000000
2730,-125.000000
2731,-128.906250
2732,-128.906250
2733,-128.906250
2734,-128.906250
2735,-128.906250
2736,-128.906250
2737,-128.906250
2738,-128.906250
2739,-128.906250
2740,-128.906250
2741,-128.906250
2742,-128.906250
2743,-132.812500
2744,-132.812500
2745,-132.812500
2746,-132.812500
2747,-132.812500
2748,-132.812500
2749,-132.812500
2750,-132.812500
2751,-132.812500
2752,-132.812500
2753,-132.812500
2754,-132.812500
2755,-132.812500
2756,-132.812500
2757,-136.718750
2758,-132.812500
2759,-132.812500
2760,-136.718750
2761,-136.718750
2762,-136.718750
2763,-136.718750
2764,-136.718750
2765,-136.718750
2766,-136.718750
2767,-136.718750
2768,-136.718750
2769,-136.718750
2770,-136.718750
2771,-136.718750
2772,-136.718750
2773,-136.718750
2774,-136.718750
2775,-136.718750
2776,-136.718750
2777,-136.718750
2778,-136.718750
2779,-136.718750
2780,-136.718750
2781,-136.718750
2782,-140.625000
2783,-136.718750
2784,-140.625000
2785,-136.718750
2786,-136.718750
2787,-136.718750
2788,-136.718750
2789,-136.718750
2790,-136.718750
2791,-136.718750
2792,-136.718750
2793,-140.625000
2794,-136.718750
2795,-140.625000
2796,-140.625000
2797,-136.718750
2798,-140.625000
2799,-140.625000
2800,-136.718750
2801,-136.718750
2802,-140.625000
2803,-140.625000
2804,-140.625000
2805,-140.625000
2806,-140.625000
2807,-140.625000
2808,-136.718750
2809,-140.625000
2810,-136.718750
2811,-136.718750
2812,-136.718750
2813,-136.718750
2814,-136.718750
2815,-136.718750
2816,-136.718750
2817,-136.718750
2818,-136.718750
2819,-136.718750
2820,-136.718750
2821,-136.718750
2822,-136.718750
2823,-136.718750
2824,-136.718750
2825,-136.718750
2826,-136.718750
2827,-136.718750
2828,-136.718750
2829,-136.718750
2830,-136.718750
2831,-136.718750
2832,-136.718750
2833,-136.718750
2834,-132.812500
2835,-132.812500
2836,-136.718750
2837,-132.812500
2838,-132.812500
2839,-132.812500
2840,-132.812500
2841,-132.812500
2842,-132.812500
2843,-132.812500
2844,-132.812500
2845,-132.812500
2846,-132.812500
2847,-132.812500
2848,-132.812500
2849,-132.812500
2850,-132.812500
2851,-128.906250
2852,-128.906250
2853,-128.906250
2854,-128.906250
2855,-128.906250
2856,-128.906250
2857,-128.906250
2858,-128.906250
2859,-128.906250
2860,-128.906250
2861,-128.906250
2862,-128.906250
2863,-125.000000
2864,-125.000000
2865,-125.000000
2866,-125.000000
2867,-125.000000
2868,-125.000000
2869,-125.000000
2870,-125.000000
2871,-125.000000
2872,-121.093750
2873,-121.093750
2874,-121.093750
2875,-121.093750
2876,-121.093750
2877,-121.093750
2878,-121.093750
2879,-121.093750
2880,-121.093750
2881,-117.187500
2882,-117.187500
2883,-117.187500
2884,-117.187500
2885,-117.187500
2886,-117.187500
2887,-117.187500
2888,-117.187500
2889,-113.281250
2890,-113.281250
2891,-113.281250
2892,-113.281250
2893,-113.281250
2894,-113.281250
2895,-113.281250
2896,-113.281250
2897,-113.281250
2898,-113.281250
2899,-109.375000
2900,-109.375000
2901,-109.375000
2902,-109.375000
2903,-109.375000
2904,-105.468750
2905,-105.468750
2906,-105.468750
2907,-105.468750
2908,-105.468750
2909,-105.468750
2910,-105.468750
2911,-105.468750
2912,-101.562500
2913,-101.562500
2914,-101.562500
2915,-101.562500
2916,-101.562500
2917,-101.562500
2918,-97.656250
2919,-97.656250
2920,-97.656250
2921,-97.656250
2922,-97.656250
2923,-97.656250
2924,-93.750000
2925,-93.750000
2926,-93.750000
2927,-93.750000
2928,-93.750000
2929,-93.750000
2930,-93.750000
2931,-89.843750
2932,-89.843750
2933,-89.843750
2934,-89.843750
2935,-89.843750
2936,-89.843750
2937,-89.843750
2938,-85.937500
2939,-85.937500
2940,-85.937500
2941,-82.031250
2942,-82.031250
2943,-82.031250
2944,-82.031250
2945,-82.031250
2946,-82.031250
2947,-82.031250
2948,-82.031250
2949,-78.125000
2950,-78.125000
2951,-78.125000
2952,-78.125000
2953,-74.218750
2954,-74.218750
2955,-74.218750
2956,-74.218750
2957,-74.218750
2958,-74.218750
2959,-74.218750
2960,-70.312500
2961,-70.312500
2962,-70.312500
2963,-70.312500
2964,-70.312500
2965,-66.406250
2966,-66.406250
2967,-66.406250
2968,-66.406250
2969,-66.406250
2970,-62.500000
2971,-62.500000
2972,-62.500000
2973,-62.500000
2974,-62.500000
2975,-58.593750
2976,-58.593750
2977,-58.593750
2978,-58.593750
2979,-58.593750
2980,-54.687500
2981,-54.687500
2982,-54.687500
2983,-54.687500
2984,-54.687500
2985,-50.781250
2986,-50.781250
2987,-50.781250
2988,-50.781250
2989,-50.781250
2990,-46.875000
2991,-46.875000
2992,-46.875000
2993,-46.875000
2994,-46.875000
2995,-46.875000
2996,-42.968750
2997,-42.968750
2998,-42.968750
2999,-42.968750
3000,-42.968750
3001,-39.062500
3002,-39.062500
3003,-39.062500
3004,-39.062500
3005,-35.156250
3006,-35.156250
3007,-35.156250
3008,-35.156250
3009,-35.156250
3010,-31.250000
3011,-31.250000
3012,-31.250000
3013,-31.250000
3014,-31.250000
3015,-27.343750
3016,-27.343750
3017,-27.343750
3018,-27.343750
3019,-27.343750
3020,-27.343750
3021,-23.437500
3022,-23.437500
3023,-23.437500
3024,-23.437500
3025,-19.531250
3026,-19.531250
3027,-19.531250
3028,-19.531250
3029,-19.531250
3030,-19.531250
3031,-15.625000
3032,-15.625000
3033,-15.625000
3034,-15.625000
3035,-11.718750
3036,-11.718750
3037,-11.718750
3038,-11.718750
3039,-11.718750
3040,-7.812500
3041,-7.812500
3042,-7.812500
3043,-7.812500
3044,-7.812500
3045,-3.906250
3046,-3.906250
3047,-3.906250
3048,-3.906250
3049,-3.906250
3050,0.000000
3051,-3.906250
3052,0.000000
3053,0.000000
3054,0.000000
3055,0.000000
3056,3.906250
3057,3.906250
3058,3.906250
3059,3.906250
3060,7.812500
3061,7.812500
3062,7.812500
3063,7.812500
3064,7.812500
3065,11.718750
3066,11.718750
3067,11.718750
3068,11.718750
3069,11.718750
3070,15.625000
3071,15.625000
3072,15.625000
3073,15.625000
3074,15.625000
3075,15.625000
3076,19.531250
3077,19.531250
3078,19.531250
3079,19.531250
3080,19.531250
3081,23.437500
3082,23.437500
3083,23.437500
3084,23.437500
3085,23.437500
3086,23.437500
3087,27.343750
3088,27.343750
3089,27.343750
3090,27.343750
3091,27.343750
3092,31.250000
3093,31.250000
3094,31.250000
3095,31.250000
3096,31.250000
3097,31.250000
3098,35.156250
3099,35.156250
3100,35.156250
3101,35.156250
3102,35.156250
3103,39.062500
3104,39.062500
3105,39.062500
3106,39.062500
3107,39.062500
3108,39.062500
3109,42.968750
3110,42.968750
3111,42.968750
3112,42.968750
3113,42.968750
3114,42.968750
3115,46.875000
3116,46.875000
3117,46.875000
3118,46.875000
3119,46.875000
3120,50.781250
3121,50.781250
3122,50.781250
3123,50.781250
3124,50.781250
3125,50.781250
3126,50.781250
3127,54.687500
3128,54.687500
3129,54.687500
3130,54.687500
3131,54.687500
3132,54.687500
3133,58.593750
3134,54.687500
3135,58.593750
3136,58.593750
3137,58.593750
3138,58.593750
3139,58.593750
3140,62.500000
3141,62.500000
3142,62.500000
3143,62.500000
3144,62.500000
3145,62.500000
3146,62.500000
3147,62.500000
3148,66.406250
3149,66.406250
3150,66.406250
3151,66.406250
3152,66.406250
3153,66.406250
3154,66.406250
3155,70.312500
3156,70.312500
3157,70.312500
3158,70.312500
3159,70.312500
3160,70.312500
3161,70.312500
3162,70.312500
3163,70.312500
3164,74.218750
3165,74.218750
3166,74.218750
3167,74.218750
3168,74.218750
3169,74.218750
3170,74.218750
3171,78.125000
3172,78.125000
3173,78.125000
3174,78.125000
3175,78.125000
3176,78.125000
3177,78.125000
3178,78.125000
3179,78.125000
3180,82.031250
3181,82.031250
3182,82.031250
3183,82.031250
3184,82.031250
3185,82.031250
3186,82.031250
3187,85.937500
3188,82.031250
3189,85.937500
3190,85.937500
3191,85.937500
3192,85.937500
3193,85.937500
3194,85.937500
3195,85.937500
3196,85.937500
3197,85.937500
3198,85.937500
3199,85.937500
3200,89.843750
3201,89.843750
3202,89.843750
3203,89.843750
3204,89.843750
3205,89.843750
3206,89.843750
3207,89.843750
3208,89.843750
3209,89.843750
3210,93.750000
3211,93.750000
3212,93.750000
3213,93.750000
3214,93.750000
3215,93.750000
3216,93.750000
3217,93.750000
3218,93.750000
3219,93.750000
3220,93.750000
3221,93.750000
3222,97.656250
3223,97.656250
3224,97.656250
3225,97.656250
3226,97.656250
3227,97.656250
3228,97.656250
3229,97.656250
3230,97.656250
3231,97.656250
3232,97.656250
3233,97.656250
3234,97.656250
3235,97.656250
3236,97.656250
3237,101.562500
3238,101.562500
3239,101.562500
3240,101.562500
3241,101.562500
3242,101.562500
3243,101.562500
3244,101.562500
3245,101.562500
3246,101.562500
3247,101.562500
3248,101.562500
3249,101.562500
3250,101.562500
3251,101.562500
3252,101.562500
3253,101.562500
3254,105.468750
3255,101.562500
3256,101.562500
3257,101.562500
3258,101.562500
3259,101.562500
3260,101.562500
3261,105.468750
3262,105.468750
3263,105.468750
3264,105.468750
3265,105.468750
3266,105.468750
3267,105.468750
3268,105.468750
3269,105.468750
3270,105.468750
3271,105.468750
3272,105.468750
3273,105.468750
3274,105.468750
3275,105.468750
3276,105.468750
3277,105.468750
3278,105.468750
3279,105.468750
3280,105.468750
3281,105.468750
3282,105.468750
3283,105.468750
3284,105.468750
3285,105.468750
3286,105.468750
3287,105.468750
3288,105.468750
3289,105.468750
3290,105.468750
3291,105.468750
3292,105.468750
3293,105.468750
3294,105.468750
3295,105.468750
3296,105.468750
3297,105.468750
3298,105.468750
3299,105.468750
3300,105.468750
3301,105.468750
3302,105.468750
3303,105.468750
3304,105.468750
3305,105.468750
3306,105.468750
3307,105.468750
3308,105.468750
3309,105.468750
3310,105.468750
3311,105.468750
3312,105.468750
3313,105.468750
3314,105.468750
3315,105.468750
3316,105.468750
3317,105.468750
3318,101.562500
3319,105.468750
3320,105.468750
3321,97.656250
3322,105.468750
3323,105.468750
3324,101.562500
3325,101.562500
3326,101.562500
3327,105.468750
3328,101.562500
3329,101.562500
3330,101.562500
3331,101.562500
3332,101.562500
3333,101.562500
3334,101.562500
3335,101.562500
3336,101.562500
3337,101.562500
3338,101.562500
3339,101.562500
3340,101.562500
3341,101.562500
3342,101.562500
3343,101.562500
3344,101.562500
3345,101.562500
3346,101.562500
3347,97.656250
3348,101.562500
3349,101.562500
3350,97.656250
3351,97.656250
3352,101.562500
3353,97.656250
3354,97.656250
3355,97.656250
3356,97.656250
3357,97.656250
3358,97.656250
3359,97.656250
3360,97.656250
3361,97.656250
3362,93.750000
3363,97.656250
3364,97.656250
3365,97.656250
3366,93.750000
3367,93.750000
3368,93.750000
3369,93.750000
3370,93.750000
3371,93.750000
3372,93.750000
3373,93.750000
3374,93.750000
3375,93.750000
3376,89.843750
3377,89.843750
3378,89.843750
3379,89.843750
3380,89.843750
3381,89.843750
3382,89.843750
3383,89.843750
3384,89.843750
3385,89.843750
3386,89.843750
3387,85.937500
3388,89.843750
3389,85.937500
3390,85.937500
3391,85.937500
3392,85.937500
3393,85.937500
3394,85.937500
3395,85.937500
3396,85.937500
3397,85.937500
3398,82.031250
3399,82.031250
3400,82.031250
3401,82.031250
3402,82.031250
3403,82.031250
3404,82.031250
3405,78.125000
3406,82.031250
3407,78.125000
3408,78.125000
3409,78.125000
3410,78.125000
3411,78.125000
3412,78.125000
3413,78.125000
3414,78.125000
3415,74.218750
3416,74.218750
3417,74.218750
3418,74.218750
3419,74.218750
3420,74.218750
3421,74.218750
3422,74.218750
3423,70.312500
3424,70.312500
3425,70.312500
3426,70.312500
3427,70.312500
3428,70.312500
3429,70.312500
3430,70.312500
3431,66.406250
3432,66.406250
3433,66.406250
3434,66.406250
3435,66.406250
3436,66.406250
3437,62.500000
3438,62.500000
3439,62.500000
3440,62.500000
3441,62.500000
3442,62.500000
3443,62.500000
3444,58.593750
3445,58.593750
3446,58.593750
3447,58.593750
3448,58.593750
3449,58.593750
3450,58.593750
3451,58.593750
3452,54.687500
3453,54.687500
3454,54.687500
3455,54.687500
3456,54.687500
3457,54.687500
3458,50.781250
3459,50.781250
3460,50.781250
3461,50.781250
3462,50.781250
3463,46.875000
3464,46.875000
3465,46.875000
3466,46.875000
3467,46.875000
3468,46.875000
3469,46.875000
3470,42.968750
3471,42.968750
3472,42.968750
3473,42.968750
3474,42.968750
3475,42.968750
3476,39.062500
3477,39.062500
3478,39.062500
3479,39.062500
3480,39.062500
3481,35.156250
3482,35.156250
3483,35.156250
3484,35.156250
3485,35.156250
3486,31.250000
3487,35.156250
3488,31.250000
3489,31.250000
3490,31.250000
3491,31.250000
3492,31.250000
3493,31.250000
3494,27.343750
3495,27.343750
3496,27.343750
3497,27.343750
3498,27.343750
3499,23.437500
3500,23.437500
3501,23.437500
3502,23.437500
3503,23.437500
3504,19.531250
3505,19.531250
3506,19.531250
3507,19.531250
3508,19.531250
3509,15.625000
3510,15.625000
3511,15.625000
3512,15.625000
3513,15.625000
3514,11.718750
3515,11.718750
3516,11.718750
3517,11.718750
3518,11.718750
3519,7.812500
3520,7.812500
3521,7.812500
3522,7.812500
3523,3.906250
3524,3.906250
3525,3.906250
3526,3.906250
3527,3.906250
3528,3.906250
3529,3.906250
3530,0.000000
3531,0.000000
3532,0.000000
3533,0.000000
3534,0.000000
3535,-3.906250
3536,-3.906250
3537,-3.906250
3538,-3.906250
3539,-3.906250
3540,-7.812500
3541,-7.812500
3542,-7.812500
3543,-11.718750
3544,-11.718750
3545,-11.718750
3546,-11.718750
3547,-11.718750
3548,-11.718750
3549,-11.718750
3550,-15.625000
3551,-15.625000
3552,-15.625000
3553,-15.625000
3554,-19.531250
3555,-19.531250
3556,-19.531250
3557,-19.531250
3558,-19.531250
3559,-23.437500
3560,-23.437500
3561,-23.437500
3562,-23.437500
3563,-23.437500
3564,-27.343750
3565,-27.343750
3566,-27.343750
3567,-27.343750
3568,-31.250000
3569,-31.250000
3570,-31.250000
3571,-31.250000
3572,-31.250000
3573,-31.250000
3574,-35.156250
3575,-35.156250
3576,-35.156250
3577,-35.156250
3578,-39.062500
3579,-39.062500
3580,-39.062500
3581,-39.062500
3582,-39.062500
3583,-42.968750
3584,-42.968750
3585,-42.968750
3586,-42.968750
3587,-42.968750
3588,-42.968750
3589,-46.875000
3590,-46.875000
3591,-46.875000
3592,-46.875000
3593,-46.875000
3594,-50.781250
3595,-50.781250
3596,-50.781250
3597,-50.781250
3598,-50.781250
3599,-54.687500
3600,-54.687500
3601,-54.687500
3602,-54.687500
3603,-58.593750
3604,-58.593750
3605,-58.593750
3606,-58.593750
3607,-58.593750
3608,-58.593750
3609,-62.500000
3610,-62.500000
3611,-62.500000
3612,-62.500000
3613,-62.500000
3614,-62.500000
3615,-66.406250
3616,-66.406250
3617,-66.406250
3618,-66.406250
3619,-70.312500
3620,-70.312500
3621,-70.312500
3622,-70.312500
3623,-70.312500
3624,-74.218750
3625,-74.218750
3626,-74.218750
3627,-74.218750
3628,-74.218750
3629,-74.218750
3630,-78.125000
3631,-78.125000
3632,-78.125000
3633,-78.125000
3634,-78.125000
3635,-78.125000
3636,-82.031250
3637,-82.031250
3638,-82.031250
3639,-82.031250
3640,-82.031250
3641,-82.031250
3642,-85.937500
3643,-85.937500
3644,-85.937500
3645,-85.937500
3646,-85.937500
3647,-89.843750
3648,-89.843750
3649,-89.843750
3650,-89.843750
3651,-89.843750
3652,-89.843750
3653,-93.750000
3654,-93.750000
3655,-93.750000
3656,-93.750000
3657,-93.750000
3658,-93.750000
3659,-93.750000
3660,-97.656250
3661,-97.656250
3662,-97.656250
3663,-97.656250
3664,-97.656250
3665,-97.656250
3666,-101.562500
3667,-101.562500
3668,-101.562500
3669,-101.562500
3670,-101.562500
3671,-101.562500
3672,-101.562500
3673,-105.468750
3674,-105.468750
3675,-105.468750
3676,-105.468750
3677,-105.468750
3678,-105.468750
3679,-105.468750
3680,-109.375000
3681,-109.375000
3682,-109.375000
3683,-109.375000
3684,-109.375000
3685,-109.375000
3686,-109.375000
3687,-113.281250
3688,-113.281250
3689,-113.281250
3690,-113.281250
3691,-113.281250
3692,-113.281250
3693,-113.281250
3694,-117.187500
3695,-113.281250
3696,-117.187500
3697,-117.187500
3698,-117.187500
3699,-117.187500
3700,-117.187500
3701,-117.187500
3702,-117.187500
3703,-117.187500
3704,-121.093750
3705,-121.093750
3706,-121.093750
3707,-121.093750
3708,-121.093750
3709,-121.093750
3710,-121.093750
3711,-121.093750
3712,-125.000000
3713,-125.000000
3714,-125.000000
3715,-125.000000
3716,-125.000000
3717,-125.000000
3718,-125.000000
3719,-128.906250
3720,-125.000000
3721,-125.000000
3722,-125.000000
3723,-125.000000
3724,-128.906250
3725,-128.906250
3726,-128.906250
3727,-128.906250
3728,-128.906250
3729,-128.906250
3730,-128.906250
3731,-128.906250
3732,-128.906250
3733,-132.812500
3734,-132.812500
3735,-132.812500
3736,-132.812500
3737,-132.812500
3738,-128.906250
3739,-132.812500
3740,-132.812500
3741,-132.812500
3742,-132.812500
3743,-132.812500
3744,-132.812500
3745,-132.812500
3746,-132.812500
3747,-132.812500
3748,-132.812500
3749,-132.812500
3750,-136.718750
3751,-132.812500
3752,-132.812500
3753,-132.812500
3754,-136.718750
3755,-136.718750
3756,-136.718750
3757,-136.718750
3758,-136.718750
3759,-136.718750
3760,-136.718750
3761,-136.718750
3762,-136.718750
3763,-136.718750
3764,-136.718750
3765,-136.718750
3766,-136.718750
3767,-136.718750
3768,-136.718750
3769,-136.718750
3770,-136.718750
3771,-136.718750
3772,-140.625000
3773,-136.718750
3774,-136.718750
3775,-136.718750
3776,-136.718750
3777,-136.718750
3778,-136.718750
3779,-136.718750
3780,-136.718750
3781,-136.718750
3782,-136.718750
3783,-136.718750
3784,-136.718750
3785,-136.718750
3786,-136.718750
3787,-140.625000
3788,-136.718750
3789,-136.718750
3790,-136.718750
3791,-136.718750
3792,-136.718750
3793,-136.718750
3794,-136.718750
3795,-136.718750
3796,-136.718750
3797,-136.718750
3798,-136.718750
3799,-136.718750
3800,-136.718750
3801,-136.718750
3802,-136.718750
3803,-136.718750
3804,-136.718750
3805,-136.718750
3806,-136.718750
3807,-136.718750
3808,-136.718750
3809,-136.718750
3810,-136.718750
3811,-136.718750
3812,-136.718750
3813,-136.718750
3814,-136.718750
3815,-136.718750
3816,-136.718750
3817,-136.718750
3818,-136.718750
3819,-132.812500
3820,-136.718750
3821,-132.812500
3822,-132.812500
3823,-132.812500
3824,-132.812500
3825,-132.812500
3826,-132.812500
3827,-132.812500
3828,-132.812500
3829,-132.812500
3830,-132.812500
3831,-132.812500
3832,-132.812500
3833,-132.812500
3834,-132.812500
3835,-132.812500
3836,-132.812500
3837,-132.812500
3838,-132.812500
3839,-128.906250
3840,-128.906250
3841,-128.906250
3842,-128.906250
3843,-128.906250
3844,-128.906250
3845,-128.906250
3846,-128.906250
3847,-128.906250
3848,-128.906250
3849,-125.000000
3850,-125.000000
3851,-125.000000
3852,-125.000000
3853,-125.000000
3854,-125.000000
3855,-125.000000
3856,-125.000000
3857,-125.000000
3858,-125.000000
3859,-121.093750
3860,-121.093750
3861,-121.093750
3862,-121.093750
3863,-121.093750
3864,-121.093750
3865,-121.093750
3866,-121.093750
3867,-121.093750
3868,-121.093750
3869,-117.187500
3870,-117.187500
3871,-117.187500
3872,-117.187500
3873,-117.187500
3874,-117.187500
3875,-117.187500
3876,-117.187500
3877,-117.187500
3878,-113.281250
3879,-113.281250
3880,-113.281250
3881,-113.281250
3882,-113.281250
3883,-113.281250
3884,-113.281250
3885,-113.281250
3886,-109.375000
3887,-109.375000
3888,-109.375000
3889,-109.375000
3890,-109.375000
3891,-109.375000
3892,-105.468750
3893,-105.468750
3894,-105.468750
3895,-105.468750
3896,-105.468750
3897,-105.468750
3898,-105.468750
3899,-105.468750
3900,-101.562500
3901,-101.562500
3902,-101.562500
3903,-101.562500
3904,-101.562500
3905,-101.562500
3906,-101.562500
3907,-97.656250
3908,-97.656250
3909,-97.656250
3910,-97.656250
3911,-97.656250
3912,-97.656250
3913,-93.750000
3914,-93.750000
3915,-93.750000
3916,-93.750000
3917,-93.750000
3918,-93.750000
3919,-89.843750
3920,-89.843750
3921,-89.843750
3922,-89.843750
3923,-89.843750
3924,-89.843750
3925,-89.843750
3926,-85.937500
3927,-85.937500
3928,-85.937500
3929,-85.937500
3930,-85.937500
3931,-82.031250
3932,-82.031250
3933,-82.031250
3934,-82.031250
3935,-82.031250
3936,-78.125000
3937,-78.125000
3938,-78.125000
3939,-78.125000
3940,-78.125000
3941,-78.125000
3942,-74.218750
3943,-74.218750
3944,-74.218750
3945,-74.218750
3946,-74.218750
3947,-74.218750
3948,-70.312500
3949,-70.312500
3950,-70.312500
3951,-70.312500
3952,-70.312500
3953,-66.406250
3954,-66.406250
3955,-66.406250
3956,-66.406250
3957,-66.406250
3958,-62.500000
3959,-62.500000
3960,-62.500000
3961,-62.500000
3962,-62.500000
3963,-62.500000
3964,-58.593750
3965,-58.593750
3966,-58.593750
3967,-58.593750
3968,-58.593750
3969,-54.687500
3970,-54.687500
3971,-54.687500
3972,-54.687500
3973,-50.781250
3974,-50.781250
3975,-50.781250
3976,-50.781250
3977,-50.781250
3978,-50.781250
3979,-46.875000
3980,-46.875000
3981,-46.875000
3982,-46.875000
3983,-46.875000
3984,-42.968750
3985,-42.968750
3986,-42.968750
3987,-42.968750
3988,-39.062500
3989,-39.062500
3990,-39.062500
3991,-39.062500
3992,-39.062500
3993,-39.062500
3994,-35.156250
3995,-35.156250
3996,-35.156250
3997,-35.156250
3998,-35.156250
3999,-31.250000
4000,-31.250000
4001,-31.250000
4002,-31.250000
4003,-27.343750
4004,-27.343750
4005,-27.343750
4006,-27.343750
4007,-27.343750
4008,-27.343750
4009,-23.437500
4010,-23.437500
4011,-23.437500
4012,-23.437500
4013,-23.437500
4014,-19.531250
4015,-19.531250
4016,-19.531250
4017,-19.531250
4018,-19.531250
4019,-15.625000
4020,-15.625000
4021,-15.625000
4022,-15.625000
4023,-15.625000
4024,-11.718750
4025,-11.718750
4026,-11.718750
4027,-11.718750
4028,-11.718750
4029,-7.812500
4030,-7.812500
4031,-7.812500
4032,-7.812500
4033,-3.906250
4034,-3.906250
4035,-3.906250
4036,-3.906250
4037,-3.906250
4038,-3.906250
4039,0.000000
4040,0.000000
4041,0.000000
4042,0.000000
4043,0.000000
4044,3.906250
4045,3.906250
4046,3.906250
4047,3.906250
4048,3.906250
4049,7.812500
4050,7.812500
4051,7.812500
4052,7.812500
4053,7.812500
4054,7.812500
4055,11.718750
4056,11.718750
4057,11.718750
4058,11.718750
4059,15.625000
4060,15.625000
4061,15.625000
4062,15.625000
4063,15.625000
4064,19.531250
4065,19.531250
4066,19.531250
4067,19.531250
4068,19.531250
4069,19.531250
4070,23.437500
4071,23.437500
4072,23.437500
4073,23.437500
4074,23.437500
4075,23.437500
4076,27.343750
4077,27.343750
4078,27.343750
4079,27.343750
4080,31.250000
4081,31.250000
4082,31.250000
4083,31.250000
4084,31.250000
4085,31.250000
4086,35.156250
4087,35.156250
4088,35.156250
4089,35.156250
4090,35.156250
4091,35.156250
4092,35.156250
4093,39.062500
4094,39.062500
4095,39.062500
4096,39.062500
4097,39.062500
4098,42.968750
4099,42.968750
4100,42.968750
4101,42.968750
4102,42.968750
4103,42.968750
4104,46.875000
4105,42.968750
4106,46.875000
4107,46.875000
4108,46.875000
4109,46.875000
4110,50.781250
4111,50.781250
4112,50.781250
4113,50.781250
4114,50.781250
4115,50.781250
4116,54.687500
4117,54.687500
4118,54.687500
4119,54.687500
4120,54.687500
4121,54.687500
4122,54.687500
4123,58.593750
4124,58.593750
4125,58.593750
4126,58.593750
4127,58.593750
4128,58.593750
4129,58.593750
4130,62.500000
4131,62.500000
4132,62.500000
4133,62.500000
4134,62.500000
4135,62.500000
4136,62.500000
4137,66.406250
4138,66.406250
4139,66.406250
4140,66.406250
4141,66.406250
4142,66.406250
4143,66.406250
4144,66.406250
4145,70.312500
4146,70.312500
4147,70.312500
4148,70.312500
4149,70.312500
4150,70.312500
4151,74.218750
4152,74.218750
4153,74.218750
4154,74.218750
4155,74.218750
4156,74.218750
4157,74.218750
4158,74.218750
4159,74.218750
4160,78.125000
4161,78.125000
4162,78.125000
4163,78.125000
4164,78.125000
4165,78.125000
4166,78.125000
4167,78.125000
4168,82.031250
4169,82.031250
4170,82.031250
4171,82.031250
4172,82.031250
4173,82.031250
4174,82.031250
4175,82.031250
4176,82.031250
4177,82.031250
4178,85.937500
4179,85.937500
4180,85.937500
4181,85.937500
4182,85.937500
4183,85.937500
4184,85.937500
4185,89.843750
4186,89.843750
4187,89.843750
4188,85.937500
4189,89.843750
4190,89.843750
4191,89.843750
4192,89.843750
4193,89.843750
4194,89.843750
4195,89.843750
4196,89.843750
4197,89.843750
4198,89.843750
4199,89.843750
4200,93.750000
4201,93.750000
4202,93.750000
4203,93.750000
4204,93.750000
4205,93.750000
4206,93.750000
4207,93.750000
4208,93.750000
4209,93.750000
4210,93.750000
4211,97.656250
4212,93.750000
4213,97.656250
4214,93.750000
4215,97.656250
4216,97.656250
4217,97.656250
4218,97.656250
4219,97.656250
4220,97.656250
4221,97.656250
4222,97.656250
4223,97.656250
4224,97.656250
4225,97.656250
4226,97.656250
4227,101.562500
4228,97.656250
4229,97.656250
4230,101.562500
4231,101.562500
4232,101.562500
4233,101.562500
4234,101.562500
4235,101.562500
4236,101.562500
4237,101.562500
4238,101.562500
4239,101.562500
4240,101.562500
4241,101.562500
4242,101.562500
4243,101.562500
4244,101.562500
4245,101.562500
4246,101.562500
4247,101.562500
4248,105.468750
4249,105.468750
4250,101.562500
4251,101.562500
4252,105.468750
4253,105.468750
4254,105.468750
4255,105.468750
4256,105.468750
4257,105.468750
4258,105.468750
4259,105.468750
4260,105.468750
4261,105.468750
4262,105.468750
4263,105.468750
4264,105.468750
4265,105.468750
4266,105.468750
4267,105.468750
4268,105.468750
4269,105.468750
4270,105.468750
4271,105.468750
4272,105.468750
4273,105.468750
4274,105.468750
4275,105.468750
4276,105.468750
4277,105.468750
4278,105.468750
4279,105.468750
4280,105.468750
4281,105.468750
4282,105.468750
4283,105.468750
4284,105.468750
4285,105.468750
4286,105.468750
4287,105.468750
4288,105.468750
4289,105.468750
4290,105.468750
4291,105.468750
4292,105.468750
4293,105.468750
4294,105.468750
4295,105.468750
4296,105.468750
4297,105.468750
4298,105.468750
4299,105.468750
4300,105.468750
4301,105.468750
4302,105.468750
4303,105.468750
4304,105.468750
4305,105.468750
4306,105.468750
4307,105.468750
4308,105.468750
4309,105.468750
4310,105.468750
4311,101.562500
4312,105.468750
4313,101.562500
4314,101.562500
4315,105.468750
4316,101.562500
4317,101.562500
4318,101.562500
4319,101.562500
4320,101.562500
4321,101.562500
4322,101.562500
4323,101.562500
4324,101.562500
4325,101.562500
4326,101.562500
4327,101.562500
4328,101.562500
4329,101.562500
4330,101.562500
4331,101.562500
4332,101.562500
4333,101.562500
4334,101.562500
4335,101.562500
4336,101.562500
4337,97.656250
4338,97.656250
4339,97.656250
4340,97.656250
4341,97.656250
4342,97.656250
4343,97.656250
4344,97.656250
4345,97.656250
4346,97.656250
4347,97.656250
4348,97.656250
4349,97.656250
4350,97.656250
4351,97.656250
4352,97.656250
4353,93.750000
4354,93.750000
4355,93.750000
4356,93.750000
4357,93.750000
4358,93.750000
4359,93.750000
4360,93.750000
4361,93.750000
4362,93.750000
4363,93.750000
4364,93.750000
4365,93.750000
4366,89.843750
4367,93.750000
4368,89.843750
4369,89.843750
4370,89.843750
4371,89.843750
4372,89.843750
4373,89.843750
4374,89.843750
4375,89.843750
4376,89.843750
4377,85.937500
4378,85.937500
4379,85.937500
4380,85.937500
4381,85.937500
4382,85.937500
4383,85.937500
4384,85.937500
4385,85.937500
4386,82.031250
4387,82.031250
4388,82.031250
4389,82.031250
4390,82.031250
4391,82.031250
4392,82.031250
4393,82.031250
4394,82.031250
4395,82.031250
4396,78.125000
4397,78.125000
4398,78.125000
4399,78.125000
4400,78.125000
4401,78.125000
4402,78.125000
4403,78.125000
4404,74.218750
4405,74.218750
4406,74.218750
4407,74.218750
4408,74.218750
4409,74.218750
4410,74.218750
4411,74.218750
4412,74.218750
4413,70.312500
4414,70.312500
4415,70.312500
4416,70.312500
4417,70.312500
4418,70.312500
4419,70.312500
4420,66.406250
4421,66.406250
4422,66.406250
4423,66.406250
4424,66.406250
4425,62.500000
4426,62.500000
4427,62.500000
4428,62.500000
4429,62.500000
4430,62.500000
4431,62.500000
4432,62.500000
4433,62.500000
4434,62.500000
4435,58.593750
4436,58.593750
4437,58.593750
4438,58.593750
4439,58.593750
4440,54.687500
4441,54.687500
4442,54.687500
4443,54.687500
4444,54.687500
4445,54.687500
4446,50.781250
4447,50.781250
4448,50.781250
4449,50.781250
4450,50.781250
4451,50.781250
4452,50.781250
4453,46.875000
4454,46.875000
4455,46.875000
4456,46.875000
4457,46.875000
4458,46.875000
4459,46.875000
4460,42.968750
4461,42.968750
4462,42.968750
4463,42.968750
4464,39.062500
4465,39.062500
4466,39.062500
4467,39.062500
4468,39.062500
4469,39.062500
4470,39.062500
4471,35.156250
4472,35.156250
4473,35.156250
4474,35.156250
4475,35.156250
4476,31.250000
4477,31.250000
4478,31.250000
4479,31.250000
4480,31.250000
4481,31.250000
4482,27.343750
4483,27.343750
4484,27.343750
4485,27.343750
4486,27.343750
4487,23.437500
4488,23.437500
4489,23.437500
4490,23.437500
4491,23.437500
4492,23.437500
4493,19.531250
4494,19.531250
4495,19.531250
4496,19.531250
4497,19.531250
4498,15.625000
4499,15.625000
4500,15.625000
4501,15.625000
4502,15.625000
4503,11.718750
4504,11.718750
4505,11.718750
4506,11.718750
4507,11.718750
4508,7.812500
4509,7.812500
4510,7.812500
4511,3.906250
4512,7.812500
4513,7.812500
4514,3.906250
4515,3.906250
4516,3.906250
4517,3.906250
4518,3.906250
4519,0.000000
4520,0.000000
4521,0.000000
4522,0.000000
4523,0.000000
4524,-3.906250
4525,-3.906250
4526,-3.906250
4527,-3.906250
4528,-7.812500
4529,-7.812500
4530,-7.812500
4531,-7.812500
4532,-7.812500
4533,-7.812500
4534,-11.718750
4535,-11.718750
4536,-11.718750
4537,-11.718750
4538,-15.625000
4539,-15.625000
4540,-15.625000
4541,-15.625000
4542,-15.625000
4543,-15.625000
4544,-19.531250
4545,-19.531250
4546,-19.531250
4547,-19.531250
4548,-19.531250
4549,-23.437500
4550,-23.437500
4551,-23.437500
4552,-23.437500
4553,-23.437500
4554,-27.343750
4555,-27.343750
4556,-27.343750
4557,-27.343750
4558,-31.250000
4559,-31.250000
4560,-31.250000
4561,-31.250000
4562,-31.250000
4563,-35.156250
4564,-35.156250
4565,-35.156250
4566,-35.156250
4567,-35.156250
4568,-39.062500
4569,-39.062500
4570,-39.062500
4571,-39.062500
4572,-39.062500
4573,-42.968750
4574,-42.968750
4575,-42.968750
4576,-42.968750
4577,-42.968750
4578,-46.875000
4579,-46.875000
4580,-46.875000
4581,-46.875000
4582,-50.781250
4583,-50.781250
4584,-50.781250
4585,-50.781250
4586,-50.781250
4587,-54.687500
4588,-54.687500
4589,-54.687500
4590,-54.687500
4591,-54.687500
4592,-54.687500
4593,-58.593750
4594,-58.593750
4595,-58.593750
4596,-58.593750
4597,-58.593750
4598,-62.500000
4599,-62.500000
4600,-62.500000
4601,-62.500000
4602,-66.406250
4603,-62.500000
4604,-66.406250
4605,-66.406250
4606,-66.406250
4607,-70.312500
4608,-70.312500
4609,-70.312500
4610,-70.312500
4611,-70.312500
4612,-70.312500
4613,-74.218750
4614,-74.218750
4615,-74.218750
4616,-74.218750
4617,-74.218750
4618,-74.218750
4619,-78.125000
4620,-78.125000
4621,-78.125000
4622,-78.125000
4623,-78.125000
4624,-82.031250
4625,-82.031250
4626,-82.031250
4627,-82.031250
4628,-82.031250
4629,-82.031250
4630,-85.937500
4631,-85.937500
4632,-85.937500
4633,-85.937500
4634,-85.937500
4635,-85.937500
4636,-89.843750
4637,-89.843750
4638,-89.843750
4639,-89.843750
4640,-89.843750
4641,-89.843750
4642,-89.843750
4643,-93.750000
4644,-93.750000
4645,-93.750000
4646,-93.750000
4647,-93.750000
4648,-97.656250
4649,-97.656250
4650,-97.656250
4651,-97.656250
4652,-97.656250
4653,-97.656250
4654,-97.656250
4655,-101.562500
4656,-101.562500
4657,-101.562500
4658,-101.562500
4659,-101.562500
4660,-101.562500
4661,-101.562500
4662,-105.468750
4663,-105.468750
4664,-105.468750
4665,-105.468750
4666,-105.468750
4667,-109.375000
4668,-109.375000
4669,-105.468750
4670,-105.468750
4671,-109.375000
4672,-109.375000
4673,-109.375000
4674,-109.375000
4675,-113.281250
4676,-113.281250
4677,-113.281250
4678,-113.281250
4679,-113.281250
4680,-113.281250
4681,-113.281250
4682,-113.281250
4683,-113.281250
4684,-117.187500
4685,-117.187500
4686,-117.187500
4687,-117.187500
4688,-117.187500
4689,-117.187500
4690,-117.187500
4691,-121.093750
4692,-121.093750
4693,-121.093750
4694,-121.093750
4695,-121.093750
4696,-121.093750
4697,-121.093750
4698,-121.093750
4699,-121.093750
4700,-121.093750
4701,-121.093750
4702,-125.000000
4703,-125.000000
4704,-125.000000
4705,-125.000000
4706,-125.000000
4707,-125.000000
4708,-125.000000
4709,-125.000000
4710,-125.000000
4711,-125.000000
4712,-128.906250
4713,-128.906250
4714,-128.906250
4715,-128.906250
4716,-128.906250
4717,-128.906250
4718,-128.906250
4719,-128.906250
4720,-128.906250
4721,-128.906250
4722,-128.906250
4723,-128.906250
4724,-132.812500
4725,-132.812500
4726,-132.812500
4727,-132.812500
4728,-132.812500
4729,-132.812500
4730,-132.812500
4731,-132.812500
4732,-132.812500
4733,-132.812500
4734,-132.812500
4735,-132.812500
4736,-132.812500
4737,-136.718750
4738,-136.718750
4739,-136.718750
4740,-136.718750
4741,-136.718750
4742,-136.718750
4743,-136.718750
4744,-136.718750
4745,-136.718750
4746,-136.718750
4747,-136.718750
4748,-136.718750
4749,-136.718750
4750,-136.718750
4751,-136.718750
4752,-136.718750
4753,-136.718750
4754,-136.718750
4755,-136.718750
4756,-136.718750
4757,-136.718750
4758,-136.718750
4759,-136.718750
4760,-136.718750
4761,-136.718750
4762,-140.625000
4763,-136.718750
4764,-140.625000
4765,-136.718750
4766,-140.625000
4767,-136.718750
4768,-140.625000
4769,-136.718750
4770,-140.625000
4771,-136.718750
4772,-136.718750
4773,-136.718750
4774,-136.718750
4775,-140.625000
4776,-136.718750
4777,-140.625000
4778,-136.718750
4779,-136.718750
4780,-140.625000
4781,-136.718750
4782,-136.718750
4783,-140.625000
4784,-136.718750
4785,-136.718750
4786,-136.718750
4787,-136.718750
4788,-136.718750
4789,-136.718750
4790,-136.718750
4791,-136.718750
4792,-136.718750
4793,-136.718750
4794,-140.625000
4795,-136.718750
4796,-136.718750
4797,-140.625000
4798,-136.718750
4799,-136.718750
4800,-136.718750
4801,-136.718750
4802,-136.718750
4803,-136.718750
4804,-136.718750
4805,-136.718750
4806,-136.718750
4807,-136.718750
4808,-136.718750
4809,-136.718750
4810,-136.718750
4811,-136.718750
4812,-136.718750
4813,-132.812500
4814,-136.718750
4815,-132.812500
4816,-136.718750
4817,-132.812500
4818,-132.812500
4819,-132.812500
4820,-132.812500
4821,-132.812500
4822,-132.812500
4823,-132.812500
4824,-132.812500
4825,-132.812500
4826,-132.812500
4827,-132.812500
4828,-132.812500
4829,-132.812500
4830,-132.812500
4831,-128.906250
4832,-128.906250
4833,-128.906250
4834,-128.906250
4835,-128.906250
4836,-128.906250
4837,-128.906250
4838,-128.906250
4839,-128.906250
4840,-125.000000
4841,-125.000000
4842,-128.906250
4843,-125.000000
4844,-125.000000
4845,-125.000000
4846,-125.000000
4847,-125.000000
4848,-125.000000
4849,-125.000000
4850,-125.000000
4851,-125.000000
4852,-121.093750
4853,-121.093750
4854,-121.093750
4855,-121.093750
4856,-121.093750
4857,-121.093750
4858,-121.093750
4859,-121.093750
4860,-121.093750
4861,-117.187500
4862,-117.187500
4863,-117.187500
4864,-117.187500
4865,-117.187500
4866,-117.187500
4867,-117.187500
4868,-117.187500
4869,-117.187500
4870,-113.281250
4871,-113.281250
4872,-113.281250
4873,-113.281250
4874,-113.281250
4875,-113.281250
4876,-113.281250
4877,-109.375000
4878,-109.375000
4879,-109.375000
4880,-109.375000
4881,-109.375000
4882,-109.375000
4883,-109.375000
4884,-105.468750
4885,-109.375000
4886,-105.468750
4887,-105.468750
4888,-105.468750
4889,-105.468750
4890,-105.468750
4891,-101.562500
4892,-101.562500
4893,-101.562500
4894,-101.562500
4895,-101.562500
4896,-101.562500
4897,-101.562500
4898,-101.562500
4899,-97.656250
4900,-97.656250
4901,-93.750000
4902,-97.656250
4903,-97.656250
4904,-89.843750
4905,-93.750000
4906,-97.656250
4907,-93.750000
4908,-93.750000
4909,-93.750000
4910,-89.843750
4911,-89.843750
4912,-93.750000
4913,-89.843750
4914,-89.843750
4915,-89.843750
4916,-85.937500
4917,-85.937500
4918,-85.937500
4919,-85.937500
4920,-85.937500
4921,-85.937500
4922,-82.031250
4923,-82.031250
4924,-82.031250
4925,-82.031250
4926,-82.031250
4927,-82.031250
4928,-78.125000
4929,-78.125000
4930,-78.125000
4931,-78.125000
4932,-78.125000
4933,-74.218750
4934,-74.218750
4935,-74.218750
4936,-74.218750
4937,-74.218750
4938,-74.218750
4939,-70.312500
4940,-70.312500
4941,-70.312500
4942,-70.312500
4943,-70.312500
4944,-70.312500
4945,-66.406250
4946,-66.406250
4947,-66.406250
4948,-66.406250
4949,-66.406250
4950,-62.500000
4951,-62.500000
4952,-62.500000
4953,-62.500000
4954,-62.500000
4955,-58.593750
4956,-58.593750
4957,-58.593750
4958,-58.593750
4959,-58.593750
4960,-54.687500
4961,-54.687500
4962,-54.687500
4963,-54.687500
4964,-50.781250
4965,-50.781250
4966,-50.781250
4967,-50.781250
4968,-50.781250
4969,-50.781250
4970,-46.875000
4971,-50.781250
4972,-46.875000
4973,-46.875000
4974,-46.875000
4975,-42.968750
4976,-42.968750
4977,-42.968750
4978,-42.968750
4979,-42.968750
4980,-42.968750
4981,-39.062500
4982,-39.062500
4983,-39.062500
4984,-35.156250
4985,-35.156250
4986,-35.156250
4987,-35.156250
4988,-35.156250
4989,-35.156250
4990,-31.250000
4991,-31.250000
4992,-31.250000
4993,-31.250000
4994,-31.250000
4995,-31.250000
4996,-27.343750
4997,-27.343750
4998,-27.343750
4999,-27.343750
5000,-27.343750
5001,-23.437500
5002,-23.437500
5003,-23.437500
5004,-23.437500
5005,-23.437500
5006,-19.531250
5007,-19.531250
5008,-19.531250
5009,-19.531250
5010,-19.531250
5011,-15.625000
5012,-15.625000
5013,-15.625000
5014,-15.625000
5015,-11.718750
5016,-11.718750
5017,-11.718750
5018,-11.718750
5019,-11.718750
5020,-11.718750
5021,-7.812500
5022,-7.812500
5023,-7.812500
5024,-7.812500
5025,-3.906250
5026,-3.906250
5027,-3.906250
5028,-3.906250
5029,-3.906250
5030,-3.906250
5031,0.000000
5032,0.000000
5033,0.000000
5034,0.000000
5035,3.906250
5036,3.906250
5037,3.906250
5038,3.906250
5039,3.906250
5040,3.906250
5041,7.812500
5042,7.812500
5043,7.812500
5044,7.812500
5045,7.812500
5046,11.718750
5047,11.718750
5048,11.718750
5049,11.718750
5050,15.625000
5051,15.625000
5052,15.625000
5053,15.625000
5054,15.625000
5055,15.625000
5056,19.531250
5057,19.531250
5058,19.531250
5059,19.531250
5060,19.531250
5061,19.531250
5062,19.531250
5063,23.437500
5064,23.437500
5065,23.437500
5066,23.437500
5067,27.343750
5068,27.343750
5069,27.343750
5070,27.343750
5071,27.343750
5072,31.250000
5073,31.250000
5074,31.250000
5075,31.250000
5076,31.250000
5077,31.250000
5078,35.156250
5079,35.156250
5080,35.156250
5081,35.156250
5082,35.156250
5083,35.156250
5084,39.062500
5085,39.062500
5086,39.062500
5087,39.062500
5088,39.062500
5089,39.062500
5090,42.968750
5091,42.968750
5092,42.968750
5093,42.968750
5094,42.968750
5095,46.875000
5096,46.875000
5097,46.875000
5098,46.875000
5099,46.875000
5100,46.875000
5101,50.781250
5102,50.781250
5103,50.781250
5104,50.781250
5105,50.781250
5106,50.781250
5107,50.781250
5108,54.687500
5109,54.687500
5110,54.687500
5111,54.687500
5112,54.687500
5113,54.687500
5114,54.687500
5115,58.593750
5116,58.593750
5117,58.593750
5118,58.593750
5119,58.593750
5120,58.593750
5121,62.500000
5122,62.500000
5123,62.500000
5124,62.500000
5125,62.500000
5126,62.500000
5127,62.500000
5128,62.500000
5129,66.406250
5130,66.406250
5131,66.406250
5132,66.406250
5133,66.406250
5134,66.406250
5135,70.312500
5136,70.312500
5137,70.312500
5138,70.312500
5139,70.312500
5140,70.312500
5141,70.312500
5142,70.312500
5143,74.218750
5144,74.218750
5145,74.218750
5146,74.218750
5147,74.218750
5148,74.218750
5149,74.218750
5150,74.218750
5151,74.218750
5152,78.125000
5153,78.125000
5154,78.125000
5155,78.125000
5156,78.125000
5157,78.125000
5158,82.031250
5159,82.031250
5160,82.031250
5161,82.031250
5162,82.031250
5163,82.031250
5164,82.031250
5165,82.031250
5166,82.031250
5167,82.031250
5168,82.031250
5169,82.031250
5170,85.937500
5171,85.937500
5172,85.937500
5173,85.937500
5174,85.937500
5175,85.937500
5176,85.937500
5177,85.937500
5178,85.937500
5179,89.843750
5180,89.843750
5181,89.843750
5182,89.843750
5183,89.843750
5184,89.843750
5185,89.843750
5186,93.750000
5187,89.843750
5188,89.843750
5189,89.843750
5190,89.843750
5191,93.750000
5192,93.750000
5193,93.750000
5194,93.750000
5195,93.750000
5196,93.750000
5197,93.750000
5198,93.750000
5199,93.750000
5200,93.750000
5201,93.750000
5202,97.656250
5203,93.750000
5204,97.656250
5205,97.656250
5206,97.656250
5207,97.656250
5208,97.656250
5209,97.656250
5210,97.656250
5211,97.656250
5212,97.656250
5213,97.656250
5214,97.656250
5215,97.656250
5216,97.656250
5217,101.562500
5218,101.562500
5219,101.562500
5220,97.656250
5221,101.562500
5222,101.562500
5223,101.562500
5224,101.562500
5225,101.562500
5226,101.562500
5227,101.562500
5228,101.562500
5229,101.562500
5230,101.562500
5231,101.562500
5232,101.562500
5233,101.562500
5234,101.562500
5235,101.562500
5236,101.562500
5237,101.562500
5238,101.562500
5239,101.562500
5240,101.562500
5241,105.468750
5242,101.562500
5243,105.468750
5244,101.562500
5245,105.468750
5246,105.468750
5247,105.468750
5248,105.468750
5249,105.468750
5250,105.468750
5251,105.468750
5252,105.468750
5253,105.468750
5254,105.468750
5255,105.468750
5256,105.468750
5257,105.468750
5258,105.468750
5259,105.468750
5260,105.468750
5261,105.468750
5262,105.468750
5263,105.468750
5264,105.468750
5265,105.468750
5266,105.468750
5267,105.468750
5268,105.468750
5269,105.468750
5270,105.468750
5271,105.468750
5272,105.468750
5273,105.468750
5274,105.468750
5275,105.468750
5276,105.468750
5277,105.468750
5278,105.468750
5279,105.468750
5280,105.468750
5281,105.468750
5282,105.468750
5283,105.468750
5284,105.468750
5285,105.468750
5286,105.468750
5287,105.468750
5288,105.468750
5289,105.468750
5290,105.468750
5291,105.468750
5292,105.468750
5293,105.468750
5294,105.468750
5295,105.468750
5296,105.468750
5297,105.468750
5298,101.562500
5299,105.468750
5300,105.468750
5301,105.468750
5302,105.468750
5303,105.468750
5304,101.562500
5305,101.562500
5306,101.562500
5307,101.562500
5308,101.562500
5309,101.562500
5310,101.562500
5311,101.562500
5312,101.562500
5313,101.562500
5314,101.562500
5315,101.562500
5316,101.562500
5317,101.562500
5318,101.562500
5319,97.656250
5320,101.562500
5321,101.562500
5322,101.562500
5323,101.562500
5324,97.656250
5325,101.562500
5326,101.562500
5327,97.656250
5328,97.656250
5329,97.656250
5330,97.656250
5331,97.656250
5332,97.656250
5333,97.656250
5334,97.656250
5335,97.656250
5336,97.656250
5337,97.656250
5338,97.656250
5339,97.656250
5340,97.656250
5341,97.656250
5342,97.656250
5343,93.750000
5344,93.750000
5345,93.750000
5346,93.750000
5347,93.750000
5348,93.750000
5349,93.750000
5350,93.750000
5351,93.750000
5352,93.750000
5353,93.750000
5354,93.750000
5355,93.750000
5356,89.843750
5357,89.843750
5358,89.843750
5359,89.843750
5360,89.843750
5361,89.843750
5362,89.843750
5363,89.843750
5364,89.843750
5365,85.937500
5366,85.937500
5367,85.937500
5368,85.937500
5369,85.937500
5370,85.937500
5371,85.937500
5372,85.937500
5373,85.937500
5374,82.031250
5375,82.031250
5376,82.031250
5377,82.031250
5378,82.031250
5379,82.031250
5380,82.031250
5381,82.031250
5382,82.031250
5383,82.031250
5384,78.125000
5385,78.125000
5386,78.125000
5387,78.125000
5388,78.125000
5389,78.125000
5390,78.125000
5391,78.125000
5392,78.125000
5393,78.125000
5394,74.218750
5395,74.218750
5396,74.218750
5397,74.218750
5398,74.218750
5399,74.218750
5400,74.218750
5401,74.218750
5402,70.312500
5403,70.312500
5404,70.312500
5405,70.312500
5406,70.312500
5407,70.312500
5408,70.312500
5409,66.406250
5410,66.406250
5411,66.406250
5412,66.406250
5413,66.406250
5414,66.406250
5415,66.406250
5416,66.406250
5417,62.500000
5418,62.500000
5419,62.500000
5420,62.500000
5421,62.500000
5422,62.500000
5423,58.593750
5424,58.593750
5425,58.593750
5426,58.593750
5427,58.593750
5428,58.593750
5429,58.593750
5430,54.687500
5431,58.593750
5432,54.687500
5433,54.687500
5434,54.687500
5435,54.687500
5436,54.687500
5437,50.781250
5438,50.781250
5439,50.781250
5440,50.781250
5441,50.781250
5442,50.781250
5443,46.875000
5444,46.875000
5445,46.875000
5446,46.875000
5447,46.875000
5448,46.875000
5449,46.875000
5450,42.968750
5451,42.968750
5452,42.968750
5453,42.968750
5454,42.968750
5455,39.062500
5456,39.062500
5457,39.062500
5458,39.062500
5459,39.062500
5460,39.062500
5461,35.156250
5462,35.156250
5463,35.156250
5464,35.156250
5465,35.156250
5466,31.250000
5467,31.250000
5468,31.250000
5469,31.250000
5470,31.250000
5471,27.343750
5472,27.343750
5473,27.343750
5474,27.343750
5475,27.343750
5476,27.343750
5477,27.343750
5478,23.437500
5479,23.437500
5480,23.437500
5481,23.437500
5482,23.437500
5483,19.531250
5484,19.531250
5485,19.531250
5486,19.531250
5487,15.625000
5488,15.625000
5489,15.625000
5490,15.625000
5491,15.625000
5492,15.625000
5493,11.718750
5494,11.718750
5495,11.718750
5496,11.718750
5497,11.718750
5498,7.812500
5499,7.812500
5500,7.812500
5501,7.812500
5502,3.906250
5503,3.906250
5504,3.906250
5505,3.906250
5506,3.906250
5507,3.906250
5508,0.000000
5509,0.000000
5510,0.000000
5511,0.000000
5512,0.000000
5513,0.000000
5514,-3.906250
5515,-3.906250
5516,-3.906250
5517,-3.906250
5518,-7.812500
5519,-7.812500
5520,-7.812500
5521,-7.812500
5522,-7.812500
5523,-11.718750
5524,-11.718750
5525,-11.718750
5526,-11.718750
5527,-11.718750
5528,-15.625000
5529,-15.625000
5530,-15.625000
5531,-15.625000
5532,-15.625000
5533,-19.531250
5534,-19.531250
5535,-19.531250
5536,-19.531250
5537,-19.531250
5538,-23.437500
5539,-23.437500
5540,-23.437500
5541,-23.437500
5542,-23.437500
5543,-27.343750
5544,-27.343750
5545,-27.343750
5546,-27.343750
5547,-27.343750
5548,-31.250000
5549,-31.250000
5550,-31.250000
5551,-31.250000
5552,-35.156250
5553,-35.156250
5554,-35.156250
5555,-35.156250
5556,-35.156250
5557,-35.156250
5558,-39.062500
5559,-39.062500
5560,-39.062500
5561,-39.062500
5562,-42.968750
5563,-42.968750
5564,-42.968750
5565,-42.968750
5566,-42.968750
5567,-42.968750
5568,-46.875000
5569,-46.875000
5570,-46.875000
5571,-46.875000
5572,-46.875000
5573,-50.781250
5574,-50.781250
5575,-50.781250
5576,-50.781250
5577,-54.687500
5578,-54.687500
5579,-54.687500
5580,-54.687500
5581,-54.687500
5582,-58.593750
5583,-58.593750
5584,-58.593750
5585,-58.593750
5586,-58.593750
5587,-58.593750
5588,-62.500000
5589,-62.500000
5590,-62.500000
5591,-62.500000
5592,-66.406250
5593,-66.406250
5594,-66.406250
5595,-66.406250
5596,-66.406250
5597,-66.406250
5598,-70.312500
5599,-70.312500
5600,-70.312500
5601,-70.312500
5602,-70.312500
5603,-70.312500
5604,-74.218750
5605,-74.218750
5606,-74.218750
5607,-74.218750
5608,-74.218750
5609,-78.125000
5610,-78.125000
5611,-78.125000
5612,-78.125000
5613,-78.125000
5614,-82.031250
5615,-82.031250
5616,-82.031250
5617,-82.031250
5618,-82.031250
5619,-82.031250
5620,-85.937500
5621,-85.937500
5622,-85.937500
5623,-85.937500
5624,-85.937500
5625,-89.843750
5626,-89.843750
5627,-89.843750
5628,-89.843750
5629,-89.843750
5630,-89.843750
5631,-89.843750
5632,-93.750000
5633,-93.750000
5634,-93.750000
5635,-93.750000
5636,-93.750000
5637,-97.656250
5638,-93.750000
5639,-97.656250
5640,-97.656250
5641,-97.656250
5642,-97.656250
5643,-97.656250
5644,-101.562500
5645,-101.562500
5646,-101.562500
5647,-101.562500
5648,-101.562500
5649,-101.562500
5650,-101.562500
5651,-101.562500
5652,-105.468750
5653,-105.468750
5654,-105.468750
5655,-105.468750
5656,-105.468750
5657,-105.468750
5658,-109.375000
5659,-109.375000
5660,-109.375000
5661,-109.375000
5662,-109.375000
5663,-109.375000
5664,-109.375000
5665,-113.281250
5666,-113.281250
5667,-113.281250
5668,-113.281250
5669,-117.187500
5670,-113.281250
5671,-113.281250
5672,-117.187500
5673,-117.187500
5674,-117.187500
5675,-117.187500
5676,-117.187500
5677,-117.187500
5678,-117.187500
5679,-117.187500
5680,-121.093750
5681,-117.187500
5682,-121.093750
5683,-121.093750
5684,-121.093750
5685,-121.093750
5686,-121.093750
5687,-121.093750
5688,-121.093750
5689,-121.093750
5690,-125.000000
5691,-125.000000
5692,-125.000000
5693,-125.000000
5694,-125.000000
5695,-125.000000
5696,-125.000000
5697,-125.000000
5698,-128.906250
5699,-128.906250
5700,-128.906250
5701,-128.906250
5702,-128.906250
5703,-128.906250
5704,-128.906250
5705,-128.906250
5706,-128.906250
5707,-128.906250
5708,-128.906250
5709,-128.906250
5710,-128.906250
5711,-128.906250
5712,-128.906250
5713,-132.812500
5714,-132.812500
5715,-132.812500
5716,-132.812500
5717,-132.812500
5718,-132.812500
5719,-132.812500
5720,-132.812500
5721,-132.812500
5722,-132.812500
5723,-132.812500
5724,-132.812500
5725,-132.812500
5726,-136.718750
5727,-136.718750
5728,-136.718750
5729,-136.718750
5730,-136.718750
5731,-136.718750
5732,-136.718750
5733,-136.718750
5734,-136.718750
5735,-136.718750
5736,-136.718750
5737,-136.718750
5738,-136.718750
5739,-136.718750
5740,-136.718750
5741,-136.718750
5742,-136.718750
5743,-136.718750
5744,-136.718750
5745,-136.718750
5746,-136.718750
5747,-136.718750
5748,-136.718750
5749,-136.718750
5750,-136.718750
5751,-140.625000
5752,-140.625000
5753,-140.625000
5754,-136.718750
5755,-136.718750
5756,-140.625000
5757,-136.718750
5758,-136.718750
5759,-140.625000
5760,-140.625000
5761,-140.625000
5762,-140.625000
5763,-140.625000
5764,-140.625000
5765,-140.625000
5766,-140.625000
5767,-140.625000
5768,-140.625000
5769,-140.625000
5770,-140.625000
5771,-140.625000
5772,-140.625000
5773,-136.718750
5774,-136.718750
5775,-136.718750
5776,-136.718750
5777,-140.625000
5778,-140.625000
5779,-136.718750
5780,-136.718750
5781,-136.718750
5782,-136.718750
5783,-136.718750
5784,-136.718750
5785,-136.718750
5786,-136.718750
5787,-136.718750
5788,-136.718750
5789,-136.718750
5790,-136.718750
5791,-136.718750
5792,-136.718750
5793,-136.718750
5794,-136.718750
5795,-136.718750
5796,-136.718750
5797,-136.718750
5798,-136.718750
5799,-136.718750
5800,-136.718750
5801,-136.718750
5802,-132.812500
5803,-136.718750
5804,-132.812500
5805,-132.812500
5806,-132.812500
5807,-132.812500
5808,-132.812500
5809,-132.812500
5810,-132.812500
5811,-132.812500
5812,-132.812500
5813,-132.812500
5814,-132.812500
5815,-132.812500
5816,-132.812500
5817,-132.812500
5818,-128.906250
5819,-128.906250
5820,-128.906250
5821,-128.906250
5822,-128.906250
5823,-128.906250
5824,-128.906250
5825,-128.906250
5826,-128.906250
5827,-128.906250
5828,-128.906250
5829,-128.906250
5830,-128.906250
5831,-125.000000
5832,-125.000000
5833,-125.000000
5834,-125.000000
5835,-125.000000
5836,-125.000000
5837,-125.000000
5838,-125.000000
5839,-125.000000
5840,-125.000000
5841,-121.093750
5842,-121.093750
5843,-121.093750
5844,-121.093750
5845,-121.093750
5846,-121.093750
5847,-121.093750
5848,-121.093750
5849,-121.093750
5850,-117.187500
5851,-117.187500
5852,-117.187500
5853,-117.187500
5854,-117.187500
5855,-117.187500
5856,-117.187500
5857,-117.187500
5858,-117.187500
5859,-113.281250
5860,-113.281250
5861,-113.281250
5862,-113.281250
5863,-113.281250
5864,-113.281250
5865,-113.281250
5866,-109.375000
5867,-109.375000
5868,-109.375000
5869,-109.375000
5870,-109.375000
5871,-109.375000
5872,-109.375000
5873,-105.468750
5874,-105.468750
5875,-105.468750
5876,-105.468750
5877,-105.468750
5878,-105.468750
5879,-105.468750
5880,-105.468750
5881,-101.562500
5882,-101.562500
5883,-101.562500
5884,-101.562500
5885,-101.562500
5886,-101.562500
5887,-97.656250
5888,-97.656250
5889,-97.656250
5890,-97.656250
5891,-97.656250
5892,-97.656250
5893,-93.750000
5894,-93.750000
5895,-93.750000
5896,-93.750000
5897,-93.750000
5898,-93.750000
5899,-93.750000
5900,-89.843750
5901,-89.843750
5902,-89.843750
5903,-89.843750
5904,-89.843750
5905,-85.937500
5906,-85.937500
5907,-85.937500
5908,-85.937500
5909,-85.937500
5910,-85.937500
5911,-82.031250
5912,-82.031250
5913,-82.031250
5914,-82.031250
5915,-82.031250
5916,-82.031250
5917,-82.031250
5918,-78.125000
5919,-78.125000
5920,-78.125000
5921,-78.125000
5922,-74.218750
5923,-74.218750
5924,-74.218750
5925,-74.218750
5926,-74.218750
5927,-74.218750
5928,-74.218750
5929,-70.312500
5930,-70.312500
5931,-70.312500
5932,-70.312500
5933,-66.406250
5934,-66.406250
5935,-66.406250
5936,-66.406250
5937,-66.406250
5938,-66.406250
5939,-62.500000
5940,-62.500000
5941,-62.500000
5942,-62.500000
5943,-62.500000
5944,-58.593750
5945,-58.593750
5946,-58.593750
5947,-58.593750
5948,-58.593750
5949,-54.687500
5950,-54.687500
5951,-54.687500
5952,-54.687500
5953,-54.687500
5954,-54.687500
5955,-50.781250
5956,-50.781250
5957,-50.781250
5958,-46.875000
5959,-46.875000
5960,-46.875000
5961,-46.875000
5962,-46.875000
5963,-46.875000
5964,-42.968750
5965,-42.968750
5966,-42.968750
5967,-42.968750
5968,-42.968750
5969,-42.968750
5970,-39.062500
5971,-39.062500
5972,-39.062500
5973,-39.062500
5974,-35.156250
5975,-35.156250
5976,-35.156250
5977,-35.156250
5978,-35.156250
5979,-31.250000
5980,-31.250000
5981,-31.250000
5982,-31.250000
5983,-31.250000
5984,-31.250000
5985,-27.343750
5986,-27.343750
5987,-27.343750
5988,-27.343750
5989,-23.437500
5990,-23.437500
5991,-23.437500
5992,-23.437500
5993,-19.531250
5994,-19.531250
5995,-19.531250
5996,-19.531250
5997,-19.531250
5998,-19.531250
5999,-15.625000
6000,-15.625000
6001,-15.625000
6002,-15.625000
6003,-15.625000
6004,-15.625000
6005,-11.718750
6006,-11.718750
6007,-11.718750
6008,-11.718750
6009,-7.812500
6010,-7.812500
6011,-7.812500
6012,-7.812500
6013,-7.812500
6014,-3.906250
6015,-3.906250
6016,-3.906250
6017,-3.906250
6018,-3.906250
6019,-3.906250
6020,0.000000
6021,0.000000
6022,0.000000
6023,0.000000
6024,3.906250
6025,3.906250
6026,3.906250
6027,3.906250
6028,3.906250
6029,7.812500
6030,7.812500
6031,7.812500
6032,7.812500
6033,7.812500
6034,11.718750
6035,11.718750
6036,11.718750
6037,11.718750
6038,11.718750
6039,15.625000
6040,15.625000
6041,15.625000
6042,15.625000
6043,15.625000
6044,15.625000
6045,19.531250
6046,19.531250
6047,19.531250
6048,19.531250
6049,19.531250
6050,23.437500
6051,23.437500
6052,23.437500
6053,23.437500
6054,23.437500
6055,27.343750
6056,27.343750
6057,27.343750
6058,27.343750
6059,27.343750
6060,27.343750
6061,31.250000
6062,31.250000
6063,31.250000
6064,31.250000
6065,31.250000
6066,35.156250
6067,35.156250
6068,35.156250
6069,35.156250
6070,35.156250
6071,35.156250
6072,39.062500
6073,39.062500
6074,39.062500
6075,39.062500
6076,39.062500
6077,42.968750
6078,39.062500
6079,42.968750
6080,42.968750
6081,42.968750
6082,42.968750
6083,46.875000
6084,46.875000
6085,46.875000
6086,46.875000
6087,46.875000
6088,46.875000
6089,50.781250
6090,50.781250
6091,50.781250
6092,50.781250
6093,50.781250
6094,50.781250
6095,50.781250
6096,54.687500
6097,54.687500
6098,54.687500
6099,54.687500
6100,54.687500
6101,54.687500
6102,54.687500
6103,58.593750
6104,58.593750
6105,58.593750
6106,58.593750
6107,58.593750
6108,58.593750
6109,62.500000
6110,62.500000
6111,62.500000
6112,62.500000
6113,62.500000
6114,62.500000
6115,66.406250
6116,66.406250
6117,66.406250
6118,66.406250
6119,66.406250
6120,66.406250
6121,66.406250
6122,70.312500
6123,70.312500
6124,70.312500
6125,70.312500
6126,70.312500
6127,70.312500
6128,70.312500
6129,70.312500
6130,74.218750
6131,74.218750
6132,74.218750
6133,74.218750
6134,74.218750
6135,74.218750
6136,74.218750
6137,74.218750
6138,78.125000
6139,78.125000
6140,78.125000
6141,74.218750
6142,78.125000
6143,78.125000
6144,78.125000
6145,82.031250
6146,82.031250
6147,82.031250
6148,82.031250
6149,82.031250
6150,82.031250
6151,82.031250
6152,82.031250
6153,82.031250
6154,82.031250
6155,85.937500
6156,85.937500
6157,85.937500
6158,85.937500
6159,85.937500
6160,85.937500
6161,85.937500
6162,85.937500
6163,85.937500
6164,85.937500
6165,89.843750
6166,89.843750
6167,89.843750
6168,89.843750
6169,89.843750
6170,89.843750
6171,89.843750
6172,89.843750
6173,89.843750
6174,89.843750
6175,89.843750
6176,89.843750
6177,93.750000
6178,93.750000
6179,93.750000
6180,93.750000
6181,93.750000
6182,93.750000
6183,93.750000
6184,93.750000
6185,93.750000
6186,93.750000
6187,93.750000
6188,93.750000
6189,97.656250
6190,97.656250
6191,97.656250
6192,97.656250
6193,97.656250
6194,97.656250
6195,97.656250
6196,97.656250
6197,97.656250
6198,97.656250
6199,97.656250
6200,97.656250
6201,97.656250
6202,97.656250
6203,101.562500
6204,101.562500
6205,101.562500
6206,101.562500
6207,101.562500
6208,101.562500
6209,101.562500
6210,101.562500
6211,101.562500
6212,101.562500
6213,101.562500
6214,101.562500
6215,101.562500
6216,101.562500
6217,101.562500
6218,101.562500
6219,101.562500
6220,101.562500
6221,101.562500
6222,101.562500
6223,101.562500
6224,105.468750
6225,105.468750
6226,105.468750
6227,101.562500
6228,105.468750
6229,105.468750
6230,105.468750
6231,105.468750
6232,105.468750
6233,105.468750
6234,105.468750
6235,105.468750
6236,105.468750
6237,105.468750
6238,105.468750
6239,105.468750
6240,105.468750
6241,105.468750
6242,105.468750
6243,105.468750
6244,105.468750
6245,105.468750
6246,105.468750
6247,105.468750
6248,105.468750
6249,105.468750
6250,105.468750
6251,105.468750
6252,105.468750
6253,105.468750
6254,105.468750
6255,105.468750
6256,105.468750
6257,105.468750
6258,105.468750
6259,105.468750
6260,105.468750
6261,105.468750
6262,105.468750
6263,105.468750
6264,105.468750
6265,105.468750
6266,105.468750
6267,105.468750
6268,105.468750
6269,105.468750
6270,105.468750
6271,105.468750
6272,105.468750
6273,105.468750
6274,105.468750
6275,105.468750
6276,105.468750
6277,105.468750
6278,105.468750
6279,105.468750
6280,105.468750
6281,105.468750
6282,105.468750
6283,105.468750
6284,105.468750
6285,105.468750
6286,105.468750
6287,105.468750
6288,105.468750
6289,105.468750
6290,105.468750
6291,105.468750
6292,105.468750
6293,101.562500
6294,105.468750
6295,105.468750
6296,105.468750
6297,105.468750
6298,105.468750
6299,101.562500
6300,101.562500
6301,101.562500
6302,101.562500
6303,101.562500
6304,101.562500
6305,101.562500
6306,101.562500
6307,101.562500
6308,101.562500
6309,101.562500
6310,101.562500
6311,101.562500
6312,101.562500
6313,101.562500
6314,101.562500
6315,101.562500
6316,101.562500
6317,101.562500
6318,101.562500
6319,97.656250
6320,97.656250
6321,101.562500
6322,97.656250
6323,97.656250
6324,97.656250
6325,97.656250
6326,97.656250
6327,97.656250
6328,97.656250
6329,97.656250
6330,97.656250
6331,97.656250
6332,97.656250
6333,97.656250
6334,97.656250
6335,97.656250
6336,93.750000
6337,93.750000
6338,93.750000
6339,93.750000
6340,93.750000
6341,93.750000
6342,93.750000
6343,93.750000
6344,93.750000
6345,93.750000
6346,93.750000
6347,93.750000
6348,89.843750
6349,93.750000
6350,93.750000
6351,89.843750
6352,89.843750
6353,89.843750
6354,89.843750
6355,89.843750
6356,89.843750
6357,89.843750
6358,89.843750
6359,89.843750
6360,85.937500
6361,85.937500
6362,85.937500
6363,85.937500
6364,85.937500
6365,85.937500
6366,85.937500
6367,85.937500
6368,85.937500
6369,82.031250
6370,82.031250
6371,82.031250
6372,82.031250
6373,82.031250
6374,82.031250
6375,82.031250
6376,82.031250
6377,82.031250
6378,82.031250
6379,78.125000
6380,78.125000
6381,78.125000
6382,78.125000
6383,78.125000
6384,78.125000
6385,78.125000
6386,78.125000
6387,74.218750
6388,74.218750
6389,74.218750
6390,74.218750
6391,74.218750
6392,74.218750
6393,74.218750
6394,70.312500
6395,70.312500
6396,70.312500
6397,70.312500
6398,70.312500
6399,70.312500
6400,70.312500
6401,66.406250
6402,66.406250
6403,66.406250
6404,66.406250
6405,66.406250
6406,66.406250
6407,66.406250
6408,66.406250
6409,62.500000
6410,62.500000
6411,66.406250
6412,62.500000
6413,62.500000
6414,62.500000
6415,62.500000
6416,58.593750
6417,58.593750
6418,58.593750
6419,58.593750
6420,58.593750
6421,58.593750
6422,54.687500
6423,58.593750
6424,54.687500
6425,54.687500
6426,54.687500
6427,54.687500
6428,50.781250
6429,50.781250
6430,50.781250
6431,50.781250
6432,50.781250
6433,50.781250
6434,50.781250
6435,46.875000
6436,46.875000
6437,46.875000
6438,46.875000
6439,46.875000
6440,42.968750
6441,42.968750
6442,42.968750
6443,42.968750
6444,42.968750
6445,42.968750
6446,42.968750
6447,39.062500
6448,39.062500
6449,39.062500
6450,39.062500
6451,39.062500
6452,35.156250
6453,35.156250
6454,35.156250
6455,39.062500
6456,35.156250
6457,35.156250
6458,31.250000
6459,31.250000
6460,31.250000
6461,31.250000
6462,31.250000
6463,31.250000
6464,27.343750
6465,27.343750
6466,27.343750
6467,27.343750
6468,23.437500
6469,23.437500
6470,23.437500
6471,23.437500
6472,23.437500
6473,23.437500
6474,19.531250
6475,19.531250
6476,19.531250
6477,19.531250
6478,19.531250
6479,15.625000
6480,15.625000
6481,15.625000
6482,15.625000
6483,15.625000
6484,15.625000
6485,11.718750
6486,11.718750
6487,11.718750
6488,11.718750
6489,7.812500
6490,7.812500
6491,7.812500
6492,7.812500
6493,7.812500
6494,7.812500
6495,3.906250
6496,3.906250
6497,3.906250
6498,3.906250
6499,0.000000
6500,0.000000
6501,0.000000
6502,0.000000
6503,0.000000
6504,0.000000
6505,-3.906250
6506,-3.906250
6507,-3.906250
6508,-3.906250
6509,-3.906250
6510,-7.812500
6511,-7.812500
6512,-7.812500
6513,-7.812500
6514,-11.718750
6515,-11.718750
6516,-11.718750
6517,-11.718750
6518,-11.718750
6519,-15.625000
6520,-15.625000
6521,-15.625000
6522,-15.625000
6523,-15.625000
6524,-19.531250
6525,-19.531250
6526,-19.531250
6527,-19.531250
6528,-19.531250
6529,-23.437500
6530,-23.437500
6531,-23.437500
6532,-23.437500
6533,-23.437500
6534,-27.343750
6535,-27.343750
6536,-27.343750
6537,-27.343750
6538,-31.250000
6539,-31.250000
6540,-31.250000
6541,-31.250000
6542,-31.250000
6543,-31.250000
6544,-35.156250
6545,-35.156250
6546,-35.156250
6547,-35.156250
6548,-35.156250
6549,-39.062500
6550,-39.062500
6551,-39.062500
6552,-39.062500
6553,-39.062500
6554,-42.968750
6555,-42.968750
6556,-42.968750
6557,-42.968750
6558,-42.968750
6559,-46.875000
6560,-46.875000
6561,-46.875000
6562,-50.781250
6563,-50.781250
6564,-50.781250
6565,-50.781250
6566,-50.781250
6567,-50.781250
6568,-54.687500
6569,-54.687500
6570,-54.687500
6571,-54.687500
6572,-54.687500
6573,-58.593750
6574,-58.593750
6575,-58.593750
6576,-58.593750
6577,-58.593750
6578,-58.593750
6579,-62.500000
6580,-62.500000
6581,-62.500000
6582,-66.406250
6583,-62.500000
6584,-66.406250
6585,-66.406250
6586,-66.406250
6587,-66.406250
6588,-66.406250
6589,-66.406250
6590,-70.312500
6591,-70.312500
6592,-70.312500
6593,-70.312500
6594,-74.218750
6595,-74.218750
6596,-74.218750
6597,-74.218750
6598,-74.218750
6599,-74.218750
6600,-78.125000
6601,-78.125000
6602,-78.125000
6603,-78.125000
6604,-78.125000
6605,-82.031250
6606,-82.031250
6607,-82.031250
6608,-82.031250
6609,-82.031250
6610,-85.937500
6611,-85.937500
6612,-85.937500
6613,-85.937500
6614,-85.937500
6615,-85.937500
6616,-89.843750
6617,-89.843750
6618,-89.843750
6619,-89.843750
6620,-89.843750
6621,-89.843750
6622,-93.750000
6623,-93.750000
6624,-93.750000
6625,-93.750000
6626,-93.750000
6627,-93.750000
6628,-93.750000
6629,-97.656250
6630,-97.656250
6631,-97.656250
6632,-97.656250
6633,-97.656250
6634,-101.562500
6635,-101.562500
6636,-101.562500
6637,-101.562500
6638,-101.562500
6639,-101.562500
6640,-105.468750
6641,-105.468750
6642,-105.468750
6643,-105.468750
6644,-105.468750
6645,-105.468750
6646,-105.468750
6647,-109.375000
6648,-109.375000
6649,-109.375000
6650,-109.375000
6651,-109.375000
6652,-109.375000
6653,-109.375000
6654,-109.375000
6655,-109.375000
6656,-113.281250
6657,-113.281250
6658,-113.281250
6659,-113.281250
6660,-113.281250
6661,-113.281250
6662,-117.187500
6663,-117.187500
6664,-117.187500
6665,-117.187500
6666,-117.187500
6667,-117.187500
6668,-117.187500
6669,-117.187500
6670,-121.093750
6671,-121.093750
6672,-121.093750
6673,-121.093750
6674,-121.093750
6675,-121.093750
6676,-121.093750
6677,-121.093750
6678,-121.093750
6679,-121.093750
6680,-125.000000
6681,-125.000000
6682,-125.000000
6683,-125.000000
6684,-125.000000
6685,-125.000000
6686,-125.000000
6687,-125.000000
6688,-128.906250
6689,-125.000000
6690,-128.906250
6691,-128.906250
6692,-128.906250
6693,-128.906250
6694,-128.906250
6695,-128.906250
6696,-128.906250
6697,-128.906250
6698,-128.906250
6699,-132.812500
6700,-132.812500
6701,-128.906250
6702,-132.812500
6703,-132.812500
6704,-132.812500
6705,-132.812500
6706,-132.812500
6707,-132.812500
6708,-132.812500
6709,-132.812500
6710,-132.812500
6711,-132.812500
6712,-132.812500
6713,-132.812500
6714,-132.812500
6715,-132.812500
6716,-136.718750
6717,-136.718750
6718,-136.718750
6719,-132.812500
6720,-132.812500
6721,-132.812500
6722,-136.718750
6723,-136.718750
6724,-136.718750
6725,-136.718750
6726,-136.718750
6727,-136.718750
6728,-136.718750
6729,-136.718750
6730,-136.718750
6731,-136.718750
6732,-136.718750
6733,-136.718750
6734,-136.718750
6735,-136.718750
6736,-136.718750
6737,-136.718750
6738,-136.718750
6739,-136.718750
6740,-136.718750
6741,-136.718750
6742,-136.718750
6743,-136.718750
6744,-136.718750
6745,-136.718750
6746,-136.718750
6747,-140.625000
6748,-136.718750
6749,-140.625000
6750,-140.625000
6751,-136.718750
6752,-140.625000
6753,-136.718750
6754,-140.625000
6755,-140.625000
6756,-140.625000
6757,-140.625000
6758,-140.625000
6759,-136.718750
6760,-140.625000
6761,-136.718750
6762,-140.625000
6763,-140.625000
6764,-140.625000
6765,-136.718750
6766,-140.625000
6767,-136.718750
6768,-136.718750
6769,-136.718750
6770,-136.718750
6771,-136.718750
6772,-136.718750
6773,-136.718750
6774,-136.718750
6775,-136.718750
6776,-136.718750
6777,-136.718750
6778,-136.718750
6779,-136.718750
6780,-136.718750
6781,-136.718750
6782,-136.718750
6783,-136.718750
6784,-136.718750
6785,-136.718750
6786,-136.718750
6787,-136.718750
6788,-136.718750
6789,-136.718750
6790,-136.718750
6791,-136.718750
6792,-136.718750
6793,-136.718750
6794,-136.718750
6795,-132.812500
6796,-136.718750
6797,-132.812500
6798,-132.812500
6799,-132.812500
6800,-132.812500
6801,-132.812500
6802,-132.812500
6803,-132.812500
6804,-132.812500
6805,-132.812500
6806,-132.812500
6807,-132.812500
6808,-132.812500
6809,-132.812500
6810,-128.906250
6811,-128.906250
6812,-128.906250
6813,-128.906250
6814,-128.906250
6815,-128.906250
6816,-128.906250
6817,-128.906250
6818,-128.906250
6819,-128.906250
6820,-128.906250
6821,-128.906250
6822,-125.000000
6823,-125.000000
6824,-125.000000
6825,-125.000000
6826,-125.000000
6827,-125.000000
6828,-125.000000
6829,-125.000000
6830,-125.000000
6831,-125.000000
6832,-125.000000
6833,-117.187500
6834,-121.093750
6835,-121.093750
6836,-117.187500
6837,-121.093750
6838,-121.093750
6839,-117.187500
6840,-121.093750
6841,-121.093750
6842,-117.187500
6843,-117.187500
6844,-117.187500
6845,-117.187500
6846,-117.187500
6847,-113.281250
6848,-117.187500
6849,-113.281250
6850,-113.281250
6851,-113.281250
6852,-113.281250
6853,-113.281250
6854,-113.281250
6855,-113.281250
6856,-113.281250
6857,-109.375000
6858,-109.375000
6859,-109.375000
6860,-109.375000
6861,-109.375000
6862,-109.375000
6863,-109.375000
6864,-105.468750
6865,-105.468750
6866,-109.375000
6867,-105.468750
6868,-105.468750
6869,-105.468750
6870,-105.468750
6871,-101.562500
6872,-101.562500
6873,-101.562500
6874,-101.562500
6875,-101.562500
6876,-101.562500
6877,-101.562500
6878,-97.656250
6879,-97.656250
6880,-97.656250
6881,-97.656250
6882,-97.656250
6883,-97.656250
6884,-97.656250
6885,-93.750000
6886,-93.750000
6887,-93.750000
6888,-93.750000
6889,-93.750000
6890,-89.843750
6891,-89.843750
6892,-89.843750
6893,-89.843750
6894,-89.843750
6895,-89.843750
6896,-89.843750
6897,-85.937500
6898,-85.937500
6899,-85.937500
6900,-85.937500
6901,-85.937500
6902,-82.031250
6903,-82.031250
6904,-82.031250
6905,-82.031250
6906,-82.031250
6907,-82.031250
6908,-78.125000
6909,-78.125000
6910,-78.125000
6911,-78.125000
6912,-78.125000
6913,-78.125000
6914,-78.125000
6915,-74.218750
6916,-74.218750
6917,-74.218750
6918,-74.218750
6919,-70.312500
6920,-70.312500
6921,-70.312500
6922,-70.312500
6923,-70.312500
6924,-70.312500
6925,-66.406250
6926,-66.406250
6927,-66.406250
6928,-66.406250
6929,-62.500000
6930,-62.500000
6931,-62.500000
6932,-62.500000
6933,-62.500000
6934,-62.500000
6935,-58.593750
6936,-58.593750
6937,-58.593750
6938,-58.593750
6939,-58.593750
6940,-58.593750
6941,-54.687500
6942,-54.687500
6943,-54.687500
6944,-50.781250
6945,-50.781250
6946,-50.781250
6947,-50.781250
6948,-50.781250
6949,-50.781250
6950,-46.875000
6951,-46.875000
6952,-46.875000
6953,-46.875000
6954,-46.875000
6955,-42.968750
6956,-42.968750
6957,-42.968750
6958,-42.968750
6959,-42.968750
6960,-39.062500
6961,-39.062500
6962,-39.062500
6963,-39.062500
6964,-39.062500
6965,-35.156250
6966,-35.156250
6967,-35.156250
6968,-35.156250
6969,-35.156250
6970,-31.250000
6971,-31.250000
6972,-31.250000
6973,-31.250000
6974,-31.250000
6975,-27.343750
6976,-27.343750
6977,-27.343750
6978,-27.343750
6979,-27.343750
6980,-23.437500
6981,-23.437500
6982,-23.437500
6983,-23.437500
6984,-23.437500
6985,-19.531250
6986,-19.531250
6987,-19.531250
6988,-19.531250
6989,-19.531250
6990,-15.625000
6991,-15.625000
6992,-15.625000
6993,-15.625000
6994,-15.625000
6995,-11.718750
6996,-11.718750
6997,-11.718750
6998,-11.718750
6999,-7.812500
7000,-7.812500
7001,-7.812500
7002,-7.812500
7003,-7.812500
7004,-3.906250
7005,-3.906250
7006,-3.906250
7007,-3.906250
7008,0.000000
7009,0.000000
7010,0.000000
7011,0.000000
7012,0.000000
7013,0.000000
7014,0.000000
7015,3.906250
7016,3.906250
7017,3.906250
7018,3.906250
7019,7.812500
7020,7.812500
7021,7.812500
7022,7.812500
7023,7.812500
7024,7.812500
7025,7.812500
7026,11.718750
7027,11.718750
7028,11.718750
7029,15.625000
7030,15.625000
7031,15.625000
7032,15.625000
7033,15.625000
7034,15.625000
7035,15.625000
7036,19.531250
7037,19.531250
7038,19.531250
7039,19.531250
7040,23.437500
7041,23.437500
7042,23.437500
7043,23.437500
7044,23.437500
7045,23.437500
7046,23.437500
7047,27.343750
7048,27.343750
7049,27.343750
7050,27.343750
7051,31.250000
7052,31.250000
7053,31.250000
7054,31.250000
7055,31.250000
7056,31.250000
7057,35.156250
7058,35.156250
7059,35.156250
7060,35.156250
7061,35.156250
7062,35.156250
7063,39.062500
7064,39.062500
7065,39.062500
7066,39.062500
7067,39.062500
7068,39.062500
7069,39.062500
7070,42.968750
7071,42.968750
7072,42.968750
7073,42.968750
7074,42.968750
7075,46.875000
7076,46.875000
7077,46.875000
7078,46.875000
7079,46.875000
7080,46.875000
7081,50.781250
7082,50.781250
7083,50.781250
7084,50.781250
7085,50.781250
7086,50.781250
7087,50.781250
7088,50.781250
7089,54.687500
7090,54.687500
7091,54.687500
7092,54.687500
7093,54.687500
7094,58.593750
7095,58.593750
7096,58.593750
7097,58.593750
7098,58.593750
7099,58.593750
7100,62.500000
7101,62.500000
7102,62.500000
7103,62.500000
7104,62.500000
7105,62.500000
7106,62.500000
7107,66.406250
7108,66.406250
7109,66.406250
7110,66.406250
7111,66.406250
7112,66.406250
7113,66.406250
7114,66.406250
7115,70.312500
7116,70.312500
7117,70.312500
7118,70.312500
7119,70.312500
7120,70.312500
7121,74.218750
7122,74.218750
7123,74.218750
7124,74.218750
7125,74.218750
7126,74.218750
7127,74.218750
7128,74.218750
7129,74.218750
7130,78.125000
7131,74.218750
7132,78.125000
7133,78.125000
7134,78.125000
7135,78.125000
7136,82.031250
7137,82.031250
7138,82.031250
7139,82.031250
7140,82.031250
7141,82.031250
7142,82.031250
7143,82.031250
7144,82.031250
7145,82.031250
7146,82.031250
7147,85.937500
7148,85.937500
7149,85.937500
7150,85.937500
7151,85.937500
7152,85.937500
7153,85.937500
7154,85.937500
7155,85.937500
7156,85.937500
7157,85.937500
7158,85.937500
7159,85.937500
7160,89.843750
7161,89.843750
7162,89.843750
7163,89.843750
7164,89.843750
7165,89.843750
7166,89.843750
7167,89.843750
7168,89.843750
7169,89.843750
7170,93.750000
7171,93.750000
7172,93.750000
7173,93.750000
7174,93.750000
7175,93.750000
7176,93.750000
7177,93.750000
7178,93.750000
7179,93.750000
7180,93.750000
7181,93.750000
7182,93.750000
7183,97.656250
7184,97.656250
7185,97.656250
7186,97.656250
7187,97.656250
7188,97.656250
7189,97.656250
7190,97.656250
7191,97.656250
7192,97.656250
7193,97.656250
7194,97.656250
7195,97.656250
7196,97.656250
7197,97.656250
7198,97.656250
7199,97.656250
7200,97.656250
7201,101.562500
7202,101.562500
7203,101.562500
7204,101.562500
7205,101.562500
7206,101.562500
7207,101.562500
7208,101.562500
7209,101.562500
7210,101.562500
7211,101.562500
7212,101.562500
7213,101.562500
7214,101.562500
7215,101.562500
7216,101.562500
7217,101.562500
7218,101.562500
7219,101.562500
7220,101.562500
7221,101.562500
7222,101.562500
7223,105.468750
7224,105.468750
7225,105.468750
7226,101.562500
7227,101.562500
7228,105.468750
7229,105.468750
7230,105.468750
7231,105.468750
7232,105.468750
7233,105.468750
7234,105.468750
7235,105.468750
7236,105.468750
7237,101.562500
7238,105.468750
7239,105.468750
7240,105.468750
7241,105.468750
7242,105.468750
7243,105.468750
7244,105.468750
7245,105.468750
7246,105.468750
7247,105.468750
7248,105.468750
7249,105.468750
7250,105.468750
7251,105.468750
7252,105.468750
7253,105.468750
7254,105.468750
7255,105.468750
7256,105.468750
7257,105.468750
7258,105.468750
7259,105.468750
7260,105.468750
7261,105.468750
7262,105.468750
7263,105.468750
7264,105.468750
7265,105.468750
7266,105.468750
7267,105.468750
7268,105.468750
7269,105.468750
7270,105.468750
7271,105.468750
7272,105.468750
7273,105.468750
7274,101.562500
7275,105.468750
7276,101.562500
7277,101.562500
7278,101.562500
7279,105.468750
7280,105.468750
7281,105.468750
7282,101.562500
7283,101.562500
7284,101.562500
7285,101.562500
7286,101.562500
7287,101.562500
7288,101.562500
7289,101.562500
7290,101.562500
7291,101.562500
7292,101.562500
7293,101.562500
7294,101.562500
7295,101.562500
7296,101.562500
7297,101.562500
7298,101.562500
7299,101.562500
7300,101.562500
7301,101.562500
7302,101.562500
7303,97.656250
7304,97.656250
7305,97.656250
7306,97.656250
7307,97.656250
7308,97.656250
7309,97.656250
7310,97.656250
7311,97.656250
7312,97.656250
7313,97.656250
7314,97.656250
7315,97.656250
7316,97.656250
7317,97.656250
7318,93.750000
7319,97.656250
7320,93.750000
7321,93.750000
7322,93.750000
7323,93.750000
7324,93.750000
7325,93.750000
7326,93.750000
7327,93.750000
7328,93.750000
7329,93.750000
7330,93.750000
7331,93.750000
7332,93.750000
7333,89.843750
7334,89.843750
7335,93.750000
7336,89.843750
7337,89.843750
7338,89.843750
7339,89.843750
7340,89.843750
7341,89.843750
7342,89.843750
7343,89.843750
7344,89.843750
7345,85.937500
7346,85.937500
7347,85.937500
7348,85.937500
7349,85.937500
7350,85.937500
7351,85.937500
7352,85.937500
7353,85.937500
7354,85.937500
7355,82.031250
7356,82.031250
7357,82.031250
7358,82.031250
7359,82.031250
7360,82.031250
7361,82.031250
7362,82.031250
7363,82.031250
7364,82.031250
7365,78.125000
7366,78.125000
7367,78.125000
7368,78.125000
7369,78.125000
7370,78.125000
7371,78.125000
7372,78.125000
7373,74.218750
7374,74.218750
7375,74.218750
7376,74.218750
7377,74.218750
7378,74.218750
7379,74.218750
7380,74.218750
7381,70.312500
7382,70.312500
7383,70.312500
7384,70.312500
7385,70.312500
7386,70.312500
7387,70.312500
7388,66.406250
7389,70.312500
7390,66.406250
7391,66.406250
7392,66.406250
7393,66.406250
7394,66.406250
7395,62.500000
7396,62.500000
7397,62.500000
7398,62.500000
7399,62.500000
7400,62.500000
7401,62.500000
7402,58.593750
7403,58.593750
7404,58.593750
7405,58.593750
7406,58.593750
7407,58.593750
7408,58.593750
7409,58.593750
7410,54.687500
7411,54.687500
7412,54.687500
7413,54.687500
7414,54.687500
7415,50.781250
7416,50.781250
7417,50.781250
7418,50.781250
7419,50.781250
7420,50.781250
7421,50.781250
7422,46.875000
7423,46.875000
7424,46.875000
7425,46.875000
7426,46.875000
7427,46.875000
7428,42.968750
7429,42.968750
7430,42.968750
7431,42.968750
7432,42.968750
7433,42.968750
7434,39.062500
7435,39.062500
7436,39.062500
7437,39.062500
7438,39.062500
7439,39.062500
7440,35.156250
7441,35.156250
7442,35.156250
7443,35.156250
7444,35.156250
7445,31.250000
7446,31.250000
7447,31.250000
7448,31.250000
7449,31.250000
7450,27.343750
7451,27.343750
7452,27.343750
7453,27.343750
7454,27.343750
7455,27.343750
7456,23.437500
7457,23.437500
7458,23.437500
7459,23.437500
7460,23.437500
7461,19.531250
7462,19.531250
7463,19.531250
7464,19.531250
7465,19.531250
7466,19.531250
7467,15.625000
7468,15.625000
7469,15.625000
7470,15.625000
7471,15.625000
7472,11.718750
7473,11.718750
7474,11.718750
7475,11.718750
7476,11.718750
7477,7.812500
7478,7.812500
7479,7.812500
7480,7.812500
7481,7.812500
7482,7.812500
7483,3.906250
7484,3.906250
7485,3.906250
7486,3.906250
7487,3.906250
7488,0.000000
7489,0.000000
7490,0.000000
7491,0.000000
7492,0.000000
7493,-3.906250
7494,-3.906250
7495,-3.906250
7496,-3.906250
7497,-3.906250
7498,-7.812500
7499,-7.812500
7500,-7.812500
7501,-7.812500
7502,-11.718750
7503,-11.718750
7504,-11.718750
7505,-11.718750
7506,-11.718750
7507,-11.718750
7508,-15.625000
7509,-15.625000
7510,-15.625000
7511,-15.625000
7512,-19.531250
7513,-19.531250
7514,-19.531250
7515,-19.531250
7516,-19.531250
7517,-19.531250
7518,-23.437500
7519,-23.437500
7520,-23.437500
7521,-23.437500
7522,-27.343750
7523,-27.343750
7524,-27.343750
7525,-27.343750
7526,-27.343750
7527,-31.250000
7528,-31.250000
7529,-31.250000
7530,-31.250000
7531,-35.156250
7532,-35.156250
7533,-35.156250
7534,-35.156250
7535,-35.156250
7536,-35.156250
7537,-35.156250
7538,-39.062500
7539,-39.062500
7540,-39.062500
7541,-39.062500
7542,-42.968750
7543,-42.968750
7544,-42.968750
7545,-42.968750
7546,-46.875000
7547,-46.875000
7548,-46.875000
7549,-46.875000
7550,-46.875000
7551,-46.875000
7552,-50.781250
7553,-50.781250
7554,-50.781250
7555,-50.781250
7556,-54.687500
7557,-54.687500
7558,-54.687500
7559,-54.687500
7560,-54.687500
7561,-54.687500
7562,-58.593750
7563,-58.593750
7564,-58.593750
7565,-58.593750
7566,-62.500000
7567,-62.500000
7568,-62.500000
7569,-62.500000
7570,-62.500000
7571,-62.500000
7572,-66.406250
7573,-66.406250
7574,-66.406250
7575,-66.406250
7576,-66.406250
7577,-66.406250
7578,-70.312500
7579,-70.312500
7580,-70.312500
7581,-70.312500
7582,-74.218750
7583,-74.218750
7584,-74.218750
7585,-74.218750
7586,-74.218750
7587,-78.125000
7588,-78.125000
7589,-78.125000
7590,-78.125000
7591,-78.125000
7592,-78.125000
7593,-78.125000
7594,-82.031250
7595,-82.031250
7596,-82.031250
7597,-82.031250
7598,-85.937500
7599,-85.937500
7600,-85.937500
7601,-85.937500
7602,-85.937500
7603,-85.937500
7604,-89.843750
7605,-89.843750
7606,-89.843750
7607,-89.843750
7608,-89.843750
7609,-89.843750
7610,-89.843750
7611,-93.750000
7612,-93.750000
7613,-93.750000
7614,-93.750000
7615,-93.750000
7616,-97.656250
7617,-97.656250
7618,-97.656250
7619,-97.656250
7620,-97.656250
7621,-97.656250
7622,-101.562500
7623,-101.562500
7624,-101.562500
7625,-101.562500
7626,-101.562500
7627,-101.562500
7628,-101.562500
7629,-105.468750
7630,-105.468750
7631,-105.468750
7632,-105.468750
7633,-105.468750
7634,-105.468750
7635,-105.468750
7636,-105.468750
7637,-109.375000
7638,-109.375000
7639,-109.375000
7640,-109.375000
7641,-109.375000
7642,-109.375000
7643,-113.281250
7644,-113.281250
7645,-113.281250
7646,-113.281250
7647,-113.281250
7648,-113.281250
7649,-113.281250
7650,-113.281250
7651,-113.281250
7652,-117.187500
7653,-117.187500
7654,-117.187500
7655,-117.187500
7656,-117.187500
7657,-117.187500
7658,-117.187500
7659,-117.187500
7660,-117.187500
7661,-117.187500
7662,-121.093750
7663,-121.093750
7664,-121.093750
7665,-121.093750
7666,-121.093750
7667,-121.093750
7668,-121.093750
7669,-125.000000
7670,-125.000000
7671,-125.000000
7672,-125.000000
7673,-125.000000
7674,-125.000000
7675,-125.000000
7676,-125.000000
7677,-125.000000
7678,-125.000000
7679,-125.000000
7680,-128.906250
7681,-128.906250
7682,-128.906250
7683,-128.906250
7684,-128.906250
7685,-128.906250
7686,-128.906250
7687,-128.906250
7688,-128.906250
7689,-128.906250
7690,-128.906250
7691,-132.812500
7692,-132.812500
7693,-132.812500
7694,-132.812500
7695,-132.812500
7696,-132.812500
7697,-132.812500
7698,-132.812500
7699,-132.812500
7700,-132.812500
7701,-132.812500
7702,-132.812500
7703,-132.812500
7704,-132.812500
7705,-132.812500
7706,-132.812500
7707,-136.718750
7708,-136.718750
7709,-136.718750
7710,-136.718750
7711,-136.718750
7712,-136.718750
7713,-136.718750
7714,-136.718750
7715,-136.718750
7716,-136.718750
7717,-136.718750
7718,-136.718750
7719,-136.718750
7720,-136.718750
7721,-136.718750
7722,-136.718750
7723,-136.718750
7724,-136.718750
7725,-136.718750
7726,-140.625000
7727,-136.718750
7728,-136.718750
7729,-136.718750
7730,-136.718750
7731,-140.625000
7732,-136.718750
7733,-140.625000
7734,-140.625000
7735,-140.625000
7736,-140.625000
7737,-140.625000
7738,-140.625000
7739,-140.625000
7740,-136.718750
7741,-136.718750
7742,-140.625000
7743,-140.625000
7744,-140.625000
7745,-140.625000
7746,-140.625000
7747,-140.625000
7748,-136.718750
7749,-140.625000
7750,-140.625000
7751,-140.625000
7752,-140.625000
7753,-136.718750
7754,-136.718750
7755,-136.718750
7756,-136.718750
7757,-136.718750
7758,-140.625000
7759,-136.718750
7760,-140.625000
7761,-136.718750
7762,-136.718750
7763,-136.718750
7764,-136.718750
7765,-136.718750
7766,-136.718750
7767,-136.718750
7768,-136.718750
7769,-136.718750
7770,-136.718750
7771,-136.718750
7772,-136.718750
7773,-136.718750
7774,-136.718750
7775,-136.718750
7776,-136.718750
7777,-136.718750
7778,-136.718750
7779,-136.718750
7780,-136.718750
7781,-136.718750
7782,-136.718750
7783,-136.718750
7784,-136.718750
7785,-136.718750
7786,-132.812500
7787,-132.812500
7788,-132.812500
7789,-132.812500
7790,-132.812500
7791,-132.812500
7792,-132.812500
7793,-132.812500
7794,-132.812500
7795,-132.812500
7796,-132.812500
7797,-132.812500
7798,-132.812500
7799,-128.906250
7800,-132.812500
7801,-128.906250
7802,-128.906250
7803,-128.906250
7804,-128.906250
7805,-128.906250
7806,-128.906250
7807,-128.906250
7808,-128.906250
7809,-128.906250
7810,-128.906250
7811,-128.906250
7812,-125.000000
7813,-125.000000
7814,-125.000000
7815,-125.000000
7816,-125.000000
7817,-125.000000
7818,-125.000000
7819,-125.000000
7820,-125.000000
7821,-121.093750
7822,-125.000000
7823,-121.093750
7824,-121.093750
7825,-121.093750
7826,-121.093750
7827,-121.093750
7828,-121.093750
7829,-121.093750
7830,-117.187500
7831,-117.187500
7832,-117.187500
7833,-117.187500
7834,-117.187500
7835,-117.187500
7836,-117.187500
7837,-117.187500
7838,-117.187500
7839,-113.281250
7840,-113.281250
7841,-113.281250
7842,-113.281250
7843,-113.281250
7844,-113.281250
7845,-113.281250
7846,-113.281250
7847,-109.375000
7848,-109.375000
7849,-109.375000
7850,-109.375000
7851,-109.375000
7852,-109.375000
7853,-109.375000
7854,-109.375000
7855,-105.468750
7856,-105.468750
7857,-105.468750
7858,-105.468750
7859,-105.468750
7860,-105.468750
7861,-105.468750
7862,-101.562500
7863,-101.562500
7864,-101.562500
7865,-101.562500
7866,-101.562500
7867,-97.656250
7868,-97.656250
7869,-97.656250
7870,-97.656250
7871,-97.656250
7872,-97.656250
7873,-97.656250
7874,-93.750000
7875,-93.750000
7876,-93.750000
7877,-93.750000
7878,-93.750000
7879,-93.750000
7880,-93.750000
7881,-89.843750
7882,-89.843750
7883,-89.843750
7884,-89.843750
7885,-85.937500
7886,-85.937500
7887,-85.937500
7888,-85.937500
7889,-85.937500
7890,-85.937500
7891,-82.031250
7892,-82.031250
7893,-82.031250
7894,-82.031250
7895,-82.031250
7896,-82.031250
7897,-78.125000
7898,-78.125000
7899,-78.125000
7900,-78.125000
7901,-78.125000
7902,-74.218750
7903,-74.218750
7904,-74.218750
7905,-74.218750
7906,-74.218750
7907,-74.218750
7908,-74.218750
7909,-70.312500
7910,-70.312500
7911,-70.312500
7912,-70.312500
7913,-66.406250
7914,-70.312500
7915,-66.406250
7916,-66.406250
7917,-66.406250
7918,-66.406250
7919,-62.500000
7920,-62.500000
7921,-62.500000
7922,-62.500000
7923,-62.500000
7924,-58.593750
7925,-58.593750
7926,-58.593750
7927,-58.593750
7928,-58.593750
7929,-54.687500
7930,-54.687500
7931,-54.687500
7932,-54.687500
7933,-54.687500
7934,-50.781250
7935,-50.781250
7936,-50.781250
7937,-50.781250
7938,-46.875000
7939,-50.781250
7940,-46.875000
7941,-46.875000
7942,-46.875000
7943,-46.875000
7944,-46.875000
7945,-42.968750
7946,-42.968750
7947,-42.968750
7948,-42.968750
7949,-42.968750
7950,-39.062500
7951,-39.062500
7952,-39.062500
7953,-39.062500
7954,-39.062500
7955,-35.156250
7956,-35.156250
7957,-35.156250
7958,-35.156250
7959,-31.250000
7960,-31.250000
7961,-31.250000
7962,-31.250000
7963,-31.250000
7964,-31.250000
7965,-27.343750
7966,-27.343750
7967,-27.343750
7968,-27.343750
7969,-23.437500
7970,-23.437500
7971,-23.437500
7972,-23.437500
7973,-23.437500
7974,-23.437500
7975,-19.531250
7976,-19.531250
7977,-19.531250
7978,-19.531250
7979,-15.625000
7980,-15.625000
7981,-15.625000
7982,-15.625000
7983,-15.625000
7984,-11.718750
7985,-11.718750
7986,-11.718750
7987,-11.718750
7988,-11.718750
7989,-7.812500
7990,-11.718750
7991,-7.812500
7992,-7.812500
7993,-7.812500
7994,-7.812500
7995,-3.906250
7996,-3.906250
7997,-3.906250
7998,0.000000
7999,0.000000
8000,-3.906250
8001,3.906250
8002,0.000000
8003,0.000000
8004,3.906250
8005,3.906250
8006,3.906250
8007,3.906250
8008,7.812500
8009,7.812500
8010,7.812500
8011,7.812500
8012,7.812500
8013,7.812500
8014,11.718750
8015,11.718750
8016,11.718750
8017,11.718750
8018,11.718750
8019,11.718750
8020,15.625000
8021,15.625000
8022,15.625000
8023,15.625000
8024,19.531250
8025,19.531250
8026,19.531250
8027,19.531250
8028,19.531250
8029,19.531250
8030,23.437500
8031,23.437500
8032,23.437500
8033,23.437500
8034,23.437500
8035,27.343750
8036,27.343750
8037,27.343750
8038,27.343750
8039,31.250000
8040,31.250000
8041,31.250000
8042,31.250000
8043,31.250000
8044,31.250000
8045,31.250000
8046,31.250000
8047,35.156250
8048,35.156250
8049,35.156250
8050,35.156250
8051,35.156250
8052,35.156250
8053,39.062500
8054,39.062500
8055,39.062500
8056,39.062500
8057,39.062500
8058,42.968750
8059,42.968750
8060,42.968750
8061,42.968750
8062,42.968750
8063,46.875000
8064,42.968750
8065,46.875000
8066,46.875000
8067,46.875000
8068,46.875000
8069,50.781250
8070,50.781250
8071,46.875000
8072,50.781250
8073,50.781250
8074,50.781250
8075,50.781250
8076,54.687500
8077,54.687500
8078,54.687500
8079,54.687500
8080,54.687500
8081,54.687500
8082,54.687500
8083,58.593750
8084,58.593750
8085,58.593750
8086,58.593750
8087,58.593750
8088,58.593750
8089,58.593750
8090,62.500000
8091,62.500000
8092,58.593750
8093,62.500000
8094,62.500000
8095,62.500000
8096,66.406250
8097,66.406250
8098,66.406250
8099,66.406250
8100,66.406250
8101,66.406250
8102,66.406250
8103,66.406250
8104,70.312500
8105,70.312500
8106,70.312500
8107,70.312500
8108,70.312500
8109,70.312500
8110,70.312500
8111,74.218750
8112,74.218750
8113,74.218750
8114,74.218750
8115,74.218750
8116,74.218750
8117,74.218750
8118,74.218750
8119,74.218750
8120,78.125000
8121,74.218750
8122,78.125000
8123,78.125000
8124,78.125000
8125,78.125000
8126,78.125000
8127,82.031250
8128,78.125000
8129,82.031250
8130,82.031250
8131,82.031250
8132,82.031250
8133,82.031250
8134,82.031250
8135,82.031250
8136,82.031250
8137,82.031250
8138,85.937500
8139,85.937500
8140,85.937500
8141,85.937500
8142,85.937500
8143,85.937500
8144,85.937500
8145,85.937500
8146,85.937500
8147,89.843750
8148,89.843750
8149,89.843750
8150,89.843750
8151,89.843750
8152,89.843750
8153,89.843750
8154,89.843750
8155,89.843750
8156,89.843750
8157,93.750000
8158,93.750000
8159,93.750000
8160,93.750000
8161,93.750000
8162,93.750000
8163,93.750000
8164,93.750000
8165,93.750000
8166,93.750000
8167,93.750000
8168,93.750000
8169,93.750000
8170,93.750000
8171,97.656250
8172,97.656250
8173,97.656250
8174,97.656250
8175,97.656250
8176,97.656250
8177,97.656250
8178,97.656250
8179,97.656250
8180,97.656250
8181,97.656250
8182,97.656250
8183,97.656250
8184,97.656250
8185,97.656250
8186,97.656250
8187,97.656250
8188,101.562500
8189,101.562500
8190,101.562500
8191,101.562500
8192,101.562500
8193,101.562500
8194,101.562500
8195,101.562500
8196,101.562500
8197,101.562500
8198,101.562500
8199,101.562500
8200,101.562500
8201,101.562500
8202,101.562500
8203,101.562500
8204,105.468750
8205,101.562500
8206,101.562500
8207,105.468750
8208,105.468750
8209,101.562500
8210,105.468750
8211,105.468750
8212,105.468750
8213,105.468750
8214,105.468750
8215,105.468750
8216,105.468750
8217,105.468750
8218,105.468750
8219,105.468750
8220,105.468750
8221,105.468750
8222,105.468750
8223,105.468750
8224,105.468750
8225,105.468750
8226,105.468750
8227,105.468750
8228,105.468750
8229,105.468750
8230,105.468750
8231,105.468750
8232,105.468750
8233,105.468750
8234,105.468750
8235,105.468750
8236,105.468750
8237,105.468750
8238,105.468750
8239,105.468750
8240,105.468750
8241,105.468750
8242,105.468750
8243,105.468750
8244,105.468750
8245,105.468750
8246,105.468750
8247,105.468750
8248,105.468750
8249,105.468750
8250,105.468750
8251,105.468750
8252,105.468750
8253,105.468750
8254,105.468750
8255,105.468750
8256,105.468750
8257,105.468750
8258,105.468750
8259,105.468750
8260,105.468750
8261,105.468750
8262,105.468750
8263,105.468750
8264,105.468750
8265,105.468750
8266,105.468750
8267,105.468750
8268,105.468750
8269,105.468750
8270,105.468750
8271,105.468750
8272,105.468750
8273,105.468750
8274,101.562500
8275,101.562500
8276,101.562500
8277,105.468750
8278,105.468750
8279,105.468750
8280,101.562500
8281,101.562500
8282,101.562500
8283,101.562500
8284,101.562500
8285,101.562500
8286,101.562500
8287,101.562500
8288,101.562500
8289,101.562500
8290,101.562500
8291,101.562500
8292,101.562500
8293,101.562500
8294,101.562500
8295,101.562500
8296,101.562500
8297,101.562500
8298,97.656250
8299,97.656250
8300,97.656250
8301,97.656250
8302,97.656250
8303,97.656250
8304,97.656250
8305,101.562500
8306,97.656250
8307,97.656250
8308,97.656250
8309,97.656250
8310,97.656250
8311,97.656250
8312,97.656250
8313,97.656250
8314,93.750000
8315,93.750000
8316,93.750000
8317,93.750000
8318,93.750000
8319,93.750000
8320,93.750000
8321,93.750000
8322,93.750000
8323,93.750000
8324,93.750000
8325,93.750000
8326,89.843750
8327,93.750000
8328,89.843750
8329,89.843750
8330,89.843750
8331,89.843750
8332,89.843750
8333,89.843750
8334,89.843750
8335,89.843750
8336,89.843750
8337,89.843750
8338,85.937500
8339,85.937500
8340,85.937500
8341,85.937500
8342,85.937500
8343,85.937500
8344,85.937500
8345,85.937500
8346,85.937500
8347,85.937500
8348,82.031250
8349,82.031250
8350,82.031250
8351,82.031250
8352,82.031250
8353,82.031250
8354,82.031250
8355,82.031250
8356,82.031250
8357,78.125000
8358,78.125000
8359,78.125000
8360,78.125000
8361,78.125000
8362,78.125000
8363,78.125000
8364,74.218750
8365,74.218750
8366,74.218750
8367,74.218750
8368,74.218750
8369,74.218750
8370,74.218750
8371,74.218750
8372,70.312500
8373,70.312500
8374,70.312500
8375,70.312500
8376,70.312500
8377,70.312500
8378,70.312500
8379,70.312500
8380,66.406250
8381,66.406250
8382,66.406250
8383,66.406250
8384,66.406250
8385,66.406250
8386,66.406250
8387,66.406250
8388,62.500000
8389,62.500000
8390,62.500000
8391,62.500000
8392,62.500000
8393,62.500000
8394,62.500000
8395,58.593750
8396,58.593750
8397,58.593750
8398,58.593750
8399,58.593750
8400,58.593750
8401,54.687500
8402,54.687500
8403,54.687500
8404,54.687500
8405,54.687500
8406,54.687500
8407,54.687500
8408,50.781250
8409,50.781250
8410,50.781250
8411,50.781250
8412,50.781250
8413,50.781250
8414,46.875000
8415,46.875000
8416,46.875000
8417,46.875000
8418,46.875000
8419,46.875000
8420,46.875000
8421,42.968750
8422,42.968750
8423,42.968750
8424,42.968750
8425,42.968750
8426,39.062500
8427,39.062500
8428,39.062500
8429,39.062500
8430,39.062500
8431,39.062500
8432,35.156250
8433,35.156250
8434,35.156250
8435,35.156250
8436,35.156250
8437,35.156250
8438,31.250000
8439,31.250000
8440,31.250000
8441,31.250000
8442,31.250000
8443,27.343750
8444,27.343750
8445,27.343750
8446,27.343750
8447,23.437500
8448,23.437500
8449,23.437500
8450,23.437500
8451,23.437500
8452,23.437500
8453,19.531250
8454,19.531250
8455,19.531250
8456,19.531250
8457,19.531250
8458,15.625000
8459,15.625000
8460,15.625000
8461,15.625000
8462,15.625000
8463,11.718750
8464,11.718750
8465,11.718750
8466,11.718750
8467,11.718750
8468,11.718750
8469,7.812500
8470,7.812500
8471,7.812500
8472,7.812500
8473,3.906250
8474,3.906250
8475,3.906250
8476,3.906250
8477,3.906250
8478,3.906250
8479,3.906250
8480,0.000000
8481,0.000000
8482,0.000000
8483,0.000000
8484,-3.906250
8485,-3.906250
8486,-3.906250
8487,-3.906250
8488,-3.906250
8489,-7.812500
8490,-7.812500
8491,-7.812500
8492,-7.812500
8493,-11.718750
8494,-11.718750
8495,-11.718750
8496,-11.718750
8497,-11.718750
8498,-11.718750
8499,-15.625000
8500,-15.625000
8501,-15.625000
8502,-15.625000
8503,-19.531250
8504,-19.531250
8505,-19.531250
8506,-19.531250
8507,-19.531250
8508,-19.531250
8509,-23.437500
8510,-23.437500
8511,-23.437500
8512,-23.437500
8513,-23.437500
8514,-27.343750
8515,-27.343750
8516,-27.343750
8517,-27.343750
8518,-31.250000
8519,-31.250000
8520,-31.250000
8521,-31.250000
8522,-31.250000
8523,-31.250000
8524,-35.156250
8525,-35.156250
8526,-35.156250
8527,-35.156250
8528,-39.062500
8529,-39.062500
8530,-39.062500
8531,-39.062500
8532,-39.062500
8533,-42.968750
8534,-42.968750
8535,-42.968750
8536,-42.968750
8537,-46.875000
8538,-46.875000
8539,-46.875000
8540,-46.875000
8541,-46.875000
8542,-46.875000
8543,-50.781250
8544,-50.781250
8545,-50.781250
8546,-50.781250
8547,-54.687500
8548,-54.687500
8549,-54.687500
8550,-54.687500
8551,-54.687500
8552,-54.687500
8553,-54.687500
8554,-58.593750
8555,-58.593750
8556,-58.593750
8557,-58.593750
8558,-58.593750
8559,-62.500000
8560,-62.500000
8561,-62.500000
8562,-62.500000
8563,-62.500000
8564,-66.406250
8565,-66.406250
8566,-66.406250
8567,-70.312500
8568,-70.312500
8569,-70.312500
8570,-70.312500
8571,-70.312500
8572,-70.312500
8573,-74.218750
8574,-74.218750
8575,-74.218750
8576,-74.218750
8577,-74.218750
8578,-74.218750
8579,-74.218750
8580,-78.125000
8581,-78.125000
8582,-78.125000
8583,-78.125000
8584,-78.125000
8585,-82.031250
8586,-82.031250
8587,-82.031250
8588,-82.031250
8589,-82.031250
8590,-82.031250
8591,-85.937500
8592,-85.937500
8593,-85.937500
8594,-85.937500
8595,-85.937500
8596,-89.843750
8597,-89.843750
8598,-89.843750
8599,-89.843750
8600,-89.843750
8601,-89.843750
8602,-93.750000
8603,-93.750000
8604,-93.750000
8605,-93.750000
8606,-93.750000
8607,-93.750000
8608,-93.750000
8609,-97.656250
8610,-97.656250
8611,-97.656250
8612,-97.656250
8613,-101.562500
8614,-101.562500
8615,-101.562500
8616,-101.562500
8617,-101.562500
8618,-101.562500
8619,-101.562500
8620,-101.562500
8621,-105.468750
8622,-105.468750
8623,-105.468750
8624,-105.468750
8625,-105.468750
8626,-105.468750
8627,-105.468750
8628,-105.468750
8629,-109.375000
8630,-109.375000
8631,-109.375000
8632,-109.375000
8633,-109.375000
8634,-109.375000
8635,-109.375000
8636,-113.281250
8637,-113.281250
8638,-113.281250
8639,-113.281250
8640,-113.281250
8641,-113.281250
8642,-117.187500
8643,-113.281250
8644,-117.187500
8645,-117.187500
8646,-117.187500
8647,-117.187500
8648,-117.187500
8649,-117.187500
8650,-117.187500
8651,-121.093750
8652,-121.093750
8653,-121.093750
8654,-121.093750
8655,-121.093750
8656,-121.093750
8657,-121.093750
8658,-121.093750
8659,-121.093750
8660,-121.093750
8661,-125.000000
8662,-125.000000
8663,-125.000000
8664,-125.000000
8665,-125.000000
8666,-125.000000
8667,-125.000000
8668,-125.000000
8669,-125.000000
8670,-125.000000
8671,-125.000000
8672,-125.000000
8673,-128.906250
8674,-128.906250
8675,-128.906250
8676,-128.906250
8677,-128.906250
8678,-128.906250
8679,-128.906250
8680,-128.906250
8681,-128.906250
8682,-132.812500
8683,-132.812500
8684,-132.812500
8685,-132.812500
8686,-132.812500
8687,-132.812500
8688,-132.812500
8689,-132.812500
8690,-132.812500
8691,-132.812500
8692,-132.812500
8693,-132.812500
8694,-132.812500
8695,-132.812500
8696,-132.812500
8697,-132.812500
8698,-132.812500
8699,-136.718750
8700,-136.718750
8701,-136.718750
8702,-136.718750
8703,-136.718750
8704,-136.718750
8705,-136.718750
8706,-136.718750
8707,-136.718750
8708,-136.718750
8709,-136.718750
8710,-136.718750
8711,-136.718750
8712,-136.718750
8713,-136.718750
8714,-136.718750
8715,-136.718750
8716,-136.718750
8717,-136.718750
8718,-136.718750
8719,-136.718750
8720,-136.718750
8721,-136.718750
8722,-136.718750
8723,-136.718750
8724,-136.718750
8725,-136.718750
8726,-136.718750
8727,-136.718750
8728,-136.718750
8729,-136.718750
8730,-136.718750
8731,-136.718750
8732,-136.718750
8733,-140.625000
8734,-140.625000
8735,-140.625000
8736,-140.625000
8737,-140.625000
8738,-140.625000
8739,-136.718750
8740,-136.718750
8741,-140.625000
8742,-136.718750
8743,-136.718750
8744,-140.625000
8745,-136.718750
8746,-136.718750
8747,-136.718750
8748,-136.718750
8749,-136.718750
8750,-140.625000
8751,-136.718750
8752,-136.718750
8753,-136.718750
8754,-136.718750
8755,-136.718750
8756,-136.718750
8757,-136.718750
8758,-136.718750
8759,-136.718750
8760,-136.718750
8761,-136.718750
8762,-136.718750
8763,-136.718750
8764,-136.718750
8765,-136.718750
8766,-136.718750
8767,-136.718750
8768,-136.718750
8769,-136.718750
8770,-132.812500
8771,-132.812500
8772,-132.812500
8773,-132.812500
8774,-132.812500
8775,-132.812500
8776,-132.812500
8777,-132.812500
8778,-132.812500
8779,-132.812500
8780,-132.812500
8781,-132.812500
8782,-132.812500
8783,-132.812500
8784,-132.812500
8785,-132.812500
8786,-132.812500
8787,-128.906250
8788,-132.812500
8789,-128.906250
8790,-128.906250
8791,-128.906250
8792,-128.906250
8793,-128.906250
8794,-128.906250
8795,-128.906250
8796,-128.906250
8797,-128.906250
8798,-128.906250
8799,-125.000000
8800,-128.906250
8801,-125.000000
8802,-125.000000
8803,-125.000000
8804,-125.000000
8805,-125.000000
8806,-125.000000
8807,-125.000000
8808,-125.000000
8809,-125.000000
8810,-121.093750
8811,-121.093750
8812,-121.093750
8813,-121.093750
8814,-121.093750
8815,-121.093750
8816,-121.093750
8817,-121.093750
8818,-121.093750
8819,-117.187500
8820,-117.187500
8821,-117.187500
8822,-117.187500
8823,-117.187500
8824,-117.187500
8825,-117.187500
8826,-113.281250
8827,-117.187500
8828,-113.281250
8829,-113.281250
8830,-113.281250
8831,-113.281250
8832,-113.281250
8833,-113.281250
8834,-113.281250
8835,-109.375000
8836,-109.375000
8837,-109.375000
8838,-109.375000
8839,-109.375000
8840,-109.375000
8841,-109.375000
8842,-105.468750
8843,-105.468750
8844,-105.468750
8845,-105.468750
8846,-105.468750
8847,-105.468750
8848,-105.468750
8849,-105.468750
8850,-101.562500
8851,-101.562500
8852,-101.562500
8853,-101.562500
8854,-101.562500
8855,-101.562500
8856,-97.656250
8857,-97.656250
8858,-97.656250
8859,-97.656250
8860,-97.656250
8861,-97.656250
8862,-97.656250
8863,-93.750000
8864,-93.750000
8865,-93.750000
8866,-93.750000
8867,-93.750000
8868,-93.750000
8869,-89.843750
8870,-89.843750
8871,-89.843750
8872,-89.843750
8873,-89.843750
8874,-89.843750
8875,-85.937500
8876,-85.937500
8877,-85.937500
8878,-85.937500
8879,-85.937500
8880,-82.031250
8881,-82.031250
8882,-82.031250
8883,-82.031250
8884,-82.031250
8885,-82.031250
8886,-78.125000
8887,-78.125000
8888,-78.125000
8889,-78.125000
8890,-78.125000
8891,-78.125000
8892,-74.218750
8893,-74.218750
8894,-74.218750
8895,-74.218750
8896,-70.312500
8897,-70.312500
8898,-70.312500
8899,-70.312500
8900,-70.312500
8901,-70.312500
8902,-70.312500
8903,-66.406250
8904,-66.406250
8905,-66.406250
8906,-66.406250
8907,-62.500000
8908,-62.500000
8909,-62.500000
8910,-62.500000
8911,-62.500000
8912,-58.593750
8913,-58.593750
8914,-58.593750
8915,-58.593750
8916,-58.593750
8917,-54.687500
8918,-54.687500
8919,-54.687500
8920,-54.687500
8921,-54.687500
8922,-54.687500
8923,-50.781250
8924,-50.781250
8925,-50.781250
8926,-50.781250
8927,-50.781250
8928,-46.875000
8929,-46.875000
8930,-46.875000
8931,-46.875000
8932,-46.875000
8933,-42.968750
8934,-42.968750
8935,-42.968750
8936,-42.968750
8937,-42.968750
8938,-39.062500
8939,-39.062500
8940,-39.062500
8941,-39.062500
8942,-39.062500
8943,-35.156250
8944,-35.156250
8945,-35.156250
8946,-35.156250
8947,-35.156250
8948,-31.250000
8949,-31.250000
8950,-31.250000
8951,-31.250000
8952,-31.250000
8953,-31.250000
8954,-27.343750
8955,-27.343750
8956,-27.343750
8957,-23.437500
8958,-23.437500
8959,-23.437500
8960,-23.437500
8961,-23.437500
8962,-23.437500
8963,-23.437500
8964,-19.531250
8965,-19.531250
8966,-19.531250
8967,-19.531250
8968,-15.625000
8969,-15.625000
8970,-15.625000
8971,-15.625000
8972,-15.625000
8973,-15.625000
8974,-11.718750
8975,-11.718750
8976,-11.718750
8977,-11.718750
8978,-7.812500
8979,-7.812500
8980,-7.812500
8981,-7.812500
8982,-7.812500
8983,-3.906250
8984,-3.906250
8985,-3.906250
8986,-3.906250
8987,-3.906250
8988,0.000000
8989,0.000000
8990,0.000000
8991,0.000000
8992,0.000000
8993,3.906250
8994,3.906250
8995,3.906250
8996,3.906250
8997,3.906250
8998,7.812500
8999,7.812500
9000,7.812500
9001,7.812500
9002,7.812500
9003,11.718750
9004,11.718750
9005,11.718750
9006,11.718750
9007,11.718750
9008,11.718750
9009,15.625000
9010,15.625000
9011,15.625000
9012,15.625000
9013,15.625000
9014,19.531250
9015,19.531250
9016,19.531250
9017,19.531250
9018,19.531250
9019,23.437500
9020,23.437500
9021,23.437500
9022,23.437500
9023,23.437500
9024,23.437500
9025,27.343750
9026,27.343750
9027,27.343750
9028,27.343750
9029,27.343750
9030,27.343750
9031,31.250000
9032,31.250000
9033,31.250000
9034,31.250000
9035,35.156250
9036,35.156250
9037,35.156250
9038,35.156250
9039,35.156250
9040,35.156250
9041,39.062500
9042,39.062500
9043,39.062500
9044,39.062500
9045,39.062500
9046,39.062500
9047,42.968750
9048,42.968750
9049,42.968750
9050,42.968750
9051,42.968750
9052,42.968750
9053,46.875000
9054,46.875000
9055,46.875000
9056,46.875000
9057,46.875000
9058,46.875000
9059,50.781250
9060,50.781250
9061,50.781250
9062,50.781250
9063,50.781250
9064,50.781250
9065,54.687500
9066,54.687500
9067,54.687500
9068,54.687500
9069,54.687500
9070,54.687500
9071,58.593750
9072,58.593750
9073,58.593750
9074,58.593750
9075,58.593750
9076,58.593750
9077,58.593750
9078,58.593750
9079,62.500000
9080,62.500000
9081,62.500000
9082,62.500000
9083,62.500000
9084,62.500000
9085,66.406250
9086,66.406250
9087,66.406250
9088,66.406250
9089,66.406250
9090,66.406250
9091,66.406250
9092,70.312500
9093,70.312500
9094,70.312500
9095,70.312500
9096,70.312500
9097,70.312500
9098,70.312500
9099,74.218750
9100,74.218750
9101,74.218750
9102,74.218750
9103,74.218750
9104,74.218750
9105,74.218750
9106,74.218750
9107,74.218750
9108,74.218750
9109,78.125000
9110,78.125000
9111,78.125000
9112,78.125000
9113,78.125000
9114,78.125000
9115,78.125000
9116,78.125000
9117,82.031250
9118,82.031250
9119,82.031250
9120,82.031250
9121,82.031250
9122,82.031250
9123,82.031250
9124,82.031250
9125,85.937500
9126,85.937500
9127,85.937500
9128,85.937500
9129,85.937500
9130,85.937500
9131,85.937500
9132,85.937500
9133,85.937500
9134,85.937500
9135,89.843750
9136,89.843750
9137,89.843750
9138,89.843750
9139,89.843750
9140,89.843750
9141,89.843750
9142,89.843750
9143,89.843750
9144,89.843750
9145,93.750000
9146,89.843750
9147,93.750000
9148,93.750000
9149,93.750000
9150,93.750000
9151,93.750000
9152,93.750000
9153,93.750000
9154,93.750000
9155,93.750000
9156,93.750000
9157,93.750000
9158,93.750000
9159,97.656250
9160,93.750000
9161,97.656250
9162,97.656250
9163,97.656250
9164,97.656250
9165,97.656250
9166,97.656250
9167,101.562500
9168,97.656250
9169,97.656250
9170,97.656250
9171,97.656250
9172,97.656250
9173,101.562500
9174,97.656250
9175,101.562500
9176,101.562500
9177,101.562500
9178,101.562500
9179,101.562500
9180,101.562500
9181,101.562500
9182,101.562500
9183,101.562500
9184,101.562500
9185,101.562500
9186,101.562500
9187,101.562500
9188,101.562500
9189,101.562500
9190,101.562500
9191,101.562500
9192,101.562500
9193,101.562500
9194,105.468750
9195,105.468750
9196,105.468750
9197,105.468750
9198,105.468750
9199,105.468750
9200,105.468750
9201,105.468750
9202,105.468750
9203,105.468750
9204,105.468750
9205,105.468750
9206,105.468750
9207,105.468750
9208,105.468750
9209,105.468750
9210,105.468750
9211,105.468750
9212,105.468750
9213,105.468750
9214,105.468750
9215,105.468750
9216,105.468750
9217,105.468750
9218,105.468750
9219,105.468750
9220,105.468750
9221,105.468750
9222,105.468750
9223,105.468750
9224,105.468750
9225,105.468750
9226,105.468750
9227,105.468750
9228,105.468750
9229,105.468750
9230,105.468750
9231,105.468750
9232,105.468750
9233,105.468750
9234,105.468750
9235,105.468750
9236,105.468750
9237,105.468750
9238,105.468750
9239,105.468750
9240,105.468750
9241,105.468750
9242,105.468750
9243,105.468750
9244,105.468750
9245,105.468750
9246,105.468750
9247,105.468750
9248,101.562500
9249,105.468750
9250,105.468750
9251,105.468750
9252,105.468750
9253,105.468750
9254,105.468750
9255,105.468750
9256,105.468750
9257,105.468750
9258,105.468750
9259,105.468750
9260,105.468750
9261,105.468750
9262,105.468750
9263,105.468750
9264,101.562500
9265,101.562500
9266,105.468750
9267,101.562500
9268,101.562500
9269,101.562500
9270,101.562500
9271,101.562500
9272,101.562500
9273,101.562500
9274,101.562500
9275,101.562500
9276,101.562500
9277,101.562500
9278,101.562500
9279,101.562500
9280,101.562500
9281,101.562500
9282,101.562500
9283,101.562500
9284,101.562500
9285,101.562500
9286,101.562500
9287,97.656250
9288,97.656250
9289,97.656250
9290,97.656250
9291,97.656250
9292,97.656250
9293,97.656250
9294,97.656250
9295,97.656250
9296,97.656250
9297,97.656250
9298,97.656250
9299,97.656250
9300,97.656250
9301,97.656250
9302,97.656250
9303,97.656250
9304,93.750000
9305,93.750000
9306,93.750000
9307,93.750000
9308,93.750000
9309,93.750000
9310,93.750000
9311,93.750000
9312,93.750000
9313,93.750000
9314,93.750000
9315,93.750000
9316,89.843750
9317,89.843750
9318,89.843750
9319,89.843750
9320,89.843750
9321,89.843750
9322,89.843750
9323,89.843750
9324,89.843750
9325,89.843750
9326,85.937500
9327,85.937500
9328,85.937500
9329,85.937500
9330,85.937500
9331,85.937500
9332,85.937500
9333,85.937500
9334,85.937500
9335,85.937500
9336,85.937500
9337,82.031250
9338,82.031250
9339,82.031250
9340,82.031250
9341,82.031250
9342,82.031250
9343,82.031250
9344,82.031250
9345,82.031250
9346,78.125000
9347,78.125000
9348,78.125000
9349,78.125000
9350,78.125000
9351,78.125000
9352,78.125000
9353,78.125000
9354,74.218750
9355,74.218750
9356,74.218750
9357,74.218750
9358,74.218750
9359,74.218750
9360,74.218750
9361,74.218750
9362,74.218750
9363,70.312500
9364,70.312500
9365,70.312500
9366,70.312500
9367,70.312500
9368,70.312500
9369,70.312500
9370,66.406250
9371,66.406250
9372,66.406250
9373,66.406250
9374,66.406250
9375,66.406250
9376,62.500000
9377,62.500000
9378,62.500000
9379,62.500000
9380,62.500000
9381,62.500000
9382,62.500000
9383,62.500000
9384,58.593750
9385,58.593750
9386,58.593750
9387,58.593750
9388,58.593750
9389,58.593750
9390,54.687500
9391,54.687500
9392,54.687500
9393,54.687500
9394,54.687500
9395,54.687500
9396,50.781250
9397,50.781250
9398,50.781250
9399,50.781250
9400,50.781250
9401,50.781250
9402,46.875000
9403,46.875000
9404,46.875000
9405,46.875000
9406,46.875000
9407,46.875000
9408,42.968750
9409,42.968750
9410,42.968750
9411,42.968750
9412,42.968750
9413,42.968750
9414,39.062500
9415,39.062500
9416,39.062500
9417,39.062500
9418,39.062500
9419,39.062500
9420,39.062500
9421,35.156250
9422,35.156250
9423,35.156250
9424,35.156250
9425,35.156250
9426,35.156250
9427,31.250000
9428,31.250000
9429,31.250000
9430,31.250000
9431,27.343750
9432,27.343750
9433,27.343750
9434,27.343750
9435,27.343750
9436,23.437500
9437,23.437500
9438,23.437500
9439,23.437500
9440,23.437500
9441,23.437500
9442,19.531250
9443,19.531250
9444,19.531250
9445,19.531250
9446,19.531250
9447,15.625000
9448,15.625000
9449,15.625000
9450,15.625000
9451,15.625000
9452,15.625000
9453,11.718750
9454,11.718750
9455,11.718750
9456,7.812500
9457,7.812500
9458,7.812500
9459,7.812500
9460,7.812500
9461,7.812500
9462,3.906250
9463,3.906250
9464,3.906250
9465,3.906250
9466,3.906250
9467,3.906250
9468,0.000000
9469,0.000000
9470,0.000000
9471,0.000000
9472,0.000000
9473,-3.906250
9474,-3.906250
9475,-3.906250
9476,-3.906250
9477,-7.812500
9478,-7.812500
9479,-7.812500
9480,-7.812500
9481,-7.812500
9482,-11.718750
9483,-11.718750
9484,-11.718750
9485,-11.718750
9486,-11.718750
9487,-15.625000
9488,-15.625000
9489,-15.625000
9490,-15.625000
9491,-15.625000
9492,-15.625000
9493,-19.531250
9494,-19.531250
9495,-19.531250
9496,-19.531250
9497,-23.437500
9498,-23.437500
9499,-23.437500
9500,-23.437500
9501,-23.437500
9502,-27.343750
9503,-27.343750
9504,-27.343750
9505,-27.343750
9506,-31.250000
9507,-31.250000
9508,-31.250000
9509,-31.250000
9510,-31.250000
9511,-35.156250
9512,-35.156250
9513,-35.156250
9514,-35.156250
9515,-35.156250
9516,-39.062500
9517,-39.062500
9518,-39.062500
9519,-39.062500
9520,-39.062500
9521,-39.062500
9522,-42.968750
9523,-42.968750
9524,-42.968750
9525,-42.968750
9526,-42.968750
9527,-46.875000
9528,-46.875000
9529,-46.875000
9530,-46.875000
9531,-50.781250
9532,-50.781250
9533,-50.781250
9534,-50.781250
9535,-50.781250
9536,-54.687500
9537,-54.687500
9538,-54.687500
9539,-54.687500
9540,-58.593750
9541,-58.593750
9542,-58.593750
9543,-58.593750
9544,-58.593750
9545,-62.500000
9546,-62.500000
9547,-62.500000
9548,-62.500000
9549,-62.500000
9550,-62.500000
9551,-66.406250
9552,-66.406250
9553,-66.406250
9554,-66.406250
9555,-66.406250
9556,-66.406250
9557,-70.312500
9558,-70.312500
9559,-70.312500
9560,-70.312500
9561,-70.312500
9562,-74.218750
9563,-74.218750
9564,-74.218750
9565,-74.218750
9566,-74.218750
9567,-78.125000
9568,-78.125000
9569,-78.125000
9570,-78.125000
9571,-78.125000
9572,-78.125000
9573,-82.031250
9574,-82.031250
9575,-82.031250
9576,-82.031250
9577,-82.031250
9578,-85.937500
9579,-82.031250
9580,-85.937500
9581,-85.937500
9582,-85.937500
9583,-85.937500
9584,-89.843750
9585,-89.843750
9586,-89.843750
9587,-89.843750
9588,-89.843750
9589,-93.750000
9590,-93.750000
9591,-93.750000
9592,-93.750000
9593,-93.750000
9594,-93.750000
9595,-93.750000
9596,-93.750000
9597,-97.656250
9598,-97.656250
9599,-97.656250
9600,-97.656250
9601,-97.656250
9602,-97.656250
9603,-101.562500
9604,-101.562500
9605,-101.562500
9606,-101.562500
9607,-101.562500
9608,-101.562500
9609,-105.468750
9610,-105.468750
9611,-105.468750
9612,-105.468750
9613,-105.468750
9614,-105.468750
9615,-105.468750
9616,-109.375000
9617,-109.375000
9618,-109.375000
9619,-109.375000
9620,-109.375000
9621,-109.375000
9622,-113.281250
9623,-113.281250
9624,-113.281250
9625,-113.281250
9626,-113.281250
9627,-113.281250
9628,-113.281250
9629,-113.281250
9630,-113.281250
9631,-113.281250
9632,-117.187500
9633,-117.187500
9634,-117.187500
9635,-117.187500
9636,-117.187500
9637,-117.187500
9638,-121.093750
9639,-121.093750
9640,-125.000000
9641,-121.093750
9642,-121.093750
9643,-117.187500
9644,-121.093750
9645,-121.093750
9646,-125.000000
9647,-121.093750
9648,-125.000000
9649,-125.000000
9650,-125.000000
9651,-125.000000
9652,-125.000000
9653,-125.000000
9654,-125.000000
9655,-125.000000
9656,-125.000000
9657,-125.000000
9658,-128.906250
9659,-128.906250
9660,-128.906250
9661,-128.906250
9662,-128.906250
9663,-128.906250
9664,-128.906250
9665,-128.906250
9666,-128.906250
9667,-128.906250
9668,-128.906250
9669,-132.812500
9670,-132.812500
9671,-132.812500
9672,-132.812500
9673,-132.812500
9674,-132.812500
9675,-132.812500
9676,-132.812500
9677,-132.812500
9678,-132.812500
9679,-132.812500
9680,-132.812500
9681,-132.812500
9682,-132.812500
9683,-132.812500
9684,-136.718750
9685,-136.718750
9686,-136.718750
9687,-136.718750
9688,-136.718750
9689,-136.718750
9690,-136.718750
9691,-136.718750
9692,-136.718750
9693,-136.718750
9694,-136.718750
9695,-136.718750
9696,-136.718750
9697,-136.718750
9698,-136.718750
9699,-136.718750
9700,-136.718750
9701,-136.718750
9702,-136.718750
9703,-136.718750
9704,-136.718750
9705,-136.718750
9706,-140.625000
9707,-140.625000
9708,-136.718750
9709,-140.625000
9710,-140.625000
9711,-140.625000
9712,-140.625000
9713,-140.625000
9714,-140.625000
9715,-140.625000
9716,-140.625000
9717,-140.625000
9718,-140.625000
9719,-140.625000
9720,-140.625000
9721,-136.718750
9722,-140.625000
9723,-140.625000
9724,-140.625000
9725,-140.625000
9726,-140.625000
9727,-140.625000
9728,-140.625000
9729,-140.625000
9730,-140.625000
9731,-140.625000
9732,-140.625000
9733,-140.625000
9734,-136.718750
9735,-140.625000
9736,-140.625000
9737,-140.625000
9738,-140.625000
9739,-140.625000
9740,-140.625000
9741,-136.718750
9742,-140.625000
9743,-136.718750
9744,-140.625000
9745,-136.718750
9746,-136.718750
9747,-136.718750
9748,-136.718750
9749,-136.718750
9750,-136.718750
9751,-136.718750
9752,-136.718750
9753,-136.718750
9754,-136.718750
9755,-136.718750
9756,-136.718750
9757,-136.718750
9758,-136.718750
9759,-136.718750
9760,-136.718750
9761,-136.718750
9762,-136.718750
9763,-136.718750
9764,-136.718750
9765,-136.718750
9766,-132.812500
9767,-132.812500
9768,-132.812500
9769,-132.812500
9770,-132.812500
9771,-132.812500
9772,-132.812500
9773,-132.812500
9774,-132.812500
9775,-132.812500
9776,-132.812500
9777,-132.812500
9778,-132.812500
9779,-128.906250
9780,-132.812500
9781,-128.906250
9782,-128.906250
9783,-128.906250
9784,-128.906250
9785,-128.906250
9786,-128.906250
9787,-128.906250
9788,-128.906250
9789,-128.906250
9790,-128.906250
9791,-128.906250
9792,-128.906250
9793,-125.000000
9794,-125.000000
9795,-125.000000
9796,-125.000000
9797,-125.000000
9798,-125.000000
9799,-125.000000
9800,-125.000000
9801,-125.000000
9802,-121.093750
9803,-121.093750
9804,-121.093750
9805,-121.093750
9806,-121.093750
9807,-121.093750
9808,-121.093750
9809,-121.093750
9810,-117.187500
9811,-117.187500
9812,-117.187500
9813,-117.187500
9814,-117.187500
9815,-117.187500
9816,-117.187500
9817,-117.187500
9818,-117.187500
9819,-113.281250
9820,-113.281250
9821,-113.281250
9822,-113.281250
9823,-113.281250
9824,-113.281250
9825,-113.281250
9826,-109.375000
9827,-109.375000
9828,-109.375000
9829,-109.375000
9830,-109.375000
9831,-109.375000
9832,-109.375000
9833,-105.468750
9834,-105.468750
9835,-105.468750
9836,-105.468750
9837,-105.468750
9838,-105.468750
9839,-105.468750
9840,-105.468750
9841,-101.562500
9842,-101.562500
9843,-101.562500
9844,-101.562500
9845,-101.562500
9846,-97.656250
9847,-97.656250
9848,-97.656250
9849,-97.656250
9850,-97.656250
9851,-97.656250
9852,-97.656250
9853,-93.750000
9854,-93.750000
9855,-93.750000
9856,-93.750000
9857,-93.750000
9858,-89.843750
9859,-89.843750
9860,-89.843750
9861,-89.843750
9862,-89.843750
9863,-89.843750
9864,-89.843750
9865,-85.937500
9866,-85.937500
9867,-85.937500
9868,-85.937500
9869,-85.937500
9870,-85.937500
9871,-82.031250
9872,-82.031250
9873,-82.031250
9874,-82.031250
9875,-82.031250
9876,-82.031250
9877,-82.031250
9878,-78.125000
9879,-78.125000
9880,-78.125000
9881,-78.125000
9882,-74.218750
9883,-74.218750
9884,-74.218750
9885,-74.218750
9886,-74.218750
9887,-74.218750
9888,-74.218750
9889,-70.312500
9890,-70.312500
9891,-70.312500
9892,-70.312500
9893,-66.406250
9894,-66.406250
9895,-66.406250
9896,-66.406250
9897,-66.406250
9898,-66.406250
9899,-62.500000
9900,-62.500000
9901,-62.500000
9902,-62.500000
9903,-62.500000
9904,-62.500000
9905,-58.593750
9906,-58.593750
9907,-58.593750
9908,-54.687500
9909,-54.687500
9910,-54.687500
9911,-54.687500
9912,-54.687500
9913,-54.687500
9914,-50.781250
9915,-50.781250
9916,-50.781250
9917,-50.781250
9918,-50.781250
9919,-46.875000
9920,-46.875000
9921,-46.875000
9922,-46.875000
9923,-46.875000
9924,-46.875000
9925,-42.968750
9926,-42.968750
9927,-42.968750
9928,-42.968750
9929,-39.062500
9930,-39.062500
9931,-39.062500
9932,-39.062500
9933,-39.062500
9934,-35.156250
9935,-35.156250
9936,-35.156250
9937,-35.156250
9938,-35.156250
9939,-31.250000
9940,-31.250000
9941,-31.250000
9942,-31.250000
9943,-31.250000
9944,-27.343750
9945,-27.343750
9946,-27.343750
9947,-27.343750
9948,-27.343750
9949,-23.437500
9950,-23.437500
9951,-23.437500
9952,-23.437500
9953,-23.437500
9954,-19.531250
9955,-19.531250
9956,-19.531250
9957,-19.531250
9958,-19.531250
9959,-15.625000
9960,-15.625000
9961,-15.625000
9962,-15.625000
9963,-15.625000
9964,-11.718750
9965,-11.718750
9966,-11.718750
9967,-11.718750
9968,-7.812500
9969,-7.812500
9970,-7.812500
9971,-7.812500
9972,-7.812500
9973,-7.812500
9974,-3.906250
9975,-3.906250
9976,-3.906250
9977,-3.906250
9978,0.000000
9979,0.000000
9980,0.000000
9981,0.000000
9982,0.000000
9983,3.906250
9984,3.906250
9985,3.906250
9986,3.906250
9987,3.906250
9988,3.906250
9989,7.812500
9990,7.812500
9991,7.812500
9992,7.812500
9993,11.718750
9994,11.718750
9995,11.718750
9996,11.718750
9997,11.718750
9998,11.718750
9999,11.718750
10000,15.625000
