Channel              :,CH1
Frequency            :,1.010kHz
Period               :,0.990ms
PK-PK                :,203.1mV
Probe attenuation    :,1X
Voltage per ADC value:,0.244141mV
Time interval        :,1.00000us

index,CH1_Voltage(mV)
1,-54.687500
2,-54.687500
3,-50.781250
4,-50.781250
5,-50.781250
6,-50.781250
7,-50.781250
8,-50.781250
9,-46.875000
10,-46.875000
11,-46.875000
12,-46.875000
13,-46.875000
14,-46.875000
15,-46.875000
16,-42.968750
17,-46.875000
18,-42.968750
19,-42.968750
20,-42.968750
21,-42.968750
22,-42.968750
23,-39.062500
24,-39.062500
25,-39.062500
26,-39.062500
27,-39.062500
28,-39.062500
29,-35.156250
30,-35.156250
31,-35.156250
32,-35.156250
33,-35.156250
34,-35.156250
35,-35.156250
36,-31.250000
37,-31.250000
38,-31.250000
39,-31.250000
40,-31.250000
41,-31.250000
42,-27.343750
43,-27.343750
44,-27.343750
45,-27.343750
46,-27.343750
47,-27.343750
48,-23.437500
49,-23.437500
50,-23.437500
51,-23.437500
52,-23.437500
53,-23.437500
54,-19.531250
55,-19.531250
56,-19.531250
57,-19.531250
58,-19.531250
59,-15.625000
60,-15.625000
61,-15.625000
62,-15.625000
63,-15.625000
64,-15.625000
65,-15.625000
66,-11.718750
67,-11.718750
68,-11.718750
69,-11.718750
70,-11.718750
71,-11.718750
72,-11.718750
73,-7.812500
74,-7.812500
75,-7.812500
76,-3.906250
77,-7.812500
78,-7.812500
79,-3.906250
80,-3.906250
81,-3.906250
82,-3.906250
83,-3.906250
84,-3.906250
85,0.000000
86,0.000000
87,0.000000
88,0.000000
89,0.000000
90,0.000000
91,0.000000
92,3.906250
93,3.906250
94,3.906250
95,3.906250
96,3.906250
97,3.906250
98,7.812500
99,7.812500
100,7.812500
101,7.812500
102,7.812500
103,7.812500
104,7.812500
105,11.718750
106,11.718750
107,11.718750
108,15.625000
109,15.625000
110,15.625000
111,11.718750
112,15.625000
113,15.625000
114,15.625000
115,15.625000
116,19.531250
117,19.531250
118,19.531250
119,19.531250
120,19.531250
121,19.531250
122,19.531250
123,19.531250
124,23.437500
125,23.437500
126,23.437500
127,23.437500
128,23.437500
129,23.437500
130,27.343750
131,27.343750
132,27.343750
133,27.343750
134,27.343750
135,27.343750
136,27.343750
137,27.343750
138,31.250000
139,31.250000
140,31.250000
141,31.250000
142,31.250000
143,31.250000
144,31.250000
145,31.250000
146,35.156250
147,35.156250
148,35.156250
149,35.156250
150,35.156250
151,35.156250
152,35.156250
153,35.156250
154,39.062500
155,39.062500
156,39.062500
157,39.062500
158,39.062500
159,39.062500
160,39.062500
161,39.062500
162,42.968750
163,42.968750
164,42.968750
165,42.968750
166,42.968750
167,42.968750
168,46.875000
169,46.875000
170,46.875000
171,46.875000
172,46.875000
173,46.875000
174,46.875000
175,46.875000
176,46.875000
177,46.875000
178,50.781250
179,50.781250
180,46.875000
181,50.781250
182,50.781250
183,50.781250
184,50.781250
185,50.781250
186,54.687500
187,50.781250
188,54.687500
189,54.687500
190,54.687500
191,54.687500
192,54.687500
193,54.687500
194,54.687500
195,54.687500
196,58.593750
197,58.593750
198,58.593750
199,58.593750
200,58.593750
201,58.593750
202,58.593750
203,58.593750
204,58.593750
205,62.500000
206,62.500000
207,58.593750
208,62.500000
209,62.500000
210,62.500000
211,62.500000
212,62.500000
213,62.500000
214,62.500000
215,62.500000
216,66.406250
217,66.406250
218,66.406250
219,66.406250
220,66.406250
221,66.406250
222,66.406250
223,66.406250
224,66.406250
225,66.406250
226,66.406250
227,66.406250
228,66.406250
229,70.312500
230,70.312500
231,70.312500
232,70.312500
233,70.312500
234,70.312500
235,70.312500
236,70.312500
237,70.312500
238,70.312500
239,70.312500
240,70.312500
241,74.218750
242,70.312500
243,70.312500
244,74.218750
245,74.218750
246,74.218750
247,74.218750
248,74.218750
249,74.218750
250,74.218750
251,74.218750
252,74.218750
253,74.218750
254,74.218750
255,74.218750
256,74.218750
257,74.218750
258,78.125000
259,74.218750
260,78.125000
261,74.218750
262,78.125000
263,78.125000
264,78.125000
265,78.125000
266,78.125000
267,78.125000
268,78.125000
269,78.125000
270,78.125000
271,78.125000
272,78.125000
273,78.125000
274,78.125000
275,78.125000
276,78.125000
277,78.125000
278,78.125000
279,78.125000
280,78.125000
281,78.125000
282,78.125000
283,78.125000
284,82.031250
285,82.031250
286,82.031250
287,82.031250
288,82.031250
289,82.031250
290,82.031250
291,82.031250
292,82.031250
293,82.031250
294,82.031250
295,82.031250
296,82.031250
297,82.031250
298,82.031250
299,82.031250
300,82.031250
301,82.031250
302,82.031250
303,82.031250
304,82.031250
305,82.031250
306,82.031250
307,82.031250
308,82.031250
309,82.031250
310,82.031250
311,82.031250
312,82.031250
313,82.031250
314,82.031250
315,82.031250
316,82.031250
317,82.031250
318,82.031250
319,82.031250
320,82.031250
321,82.031250
322,82.031250
323,82.031250
324,82.031250
325,82.031250
326,82.031250
327,82.031250
328,82.031250
329,82.031250
330,82.031250
331,82.031250
332,82.031250
333,82.031250
334,82.031250
335,82.031250
336,82.031250
337,82.031250
338,82.031250
339,82.031250
340,82.031250
341,82.031250
342,82.031250
343,82.031250
344,82.031250
345,82.031250
346,82.031250
347,82.031250
348,82.031250
349,82.031250
350,82.031250
351,82.031250
352,82.031250
353,82.031250
354,82.031250
355,82.031250
356,82.031250
357,82.031250
358,82.031250
359,82.031250
360,82.031250
361,82.031250
362,82.031250
363,82.031250
364,78.125000
365,78.125000
366,78.125000
367,78.125000
368,78.125000
369,78.125000
370,78.125000
371,78.125000
372,78.125000
373,78.125000
374,78.125000
375,78.125000
376,78.125000
377,78.125000
378,78.125000
379,78.125000
380,78.125000
381,78.125000
382,78.125000
383,78.125000
384,78.125000
385,74.218750
386,78.125000
387,74.218750
388,74.218750
389,74.218750
390,74.218750
391,74.218750
392,74.218750
393,74.218750
394,74.218750
395,74.218750
396,74.218750
397,74.218750
398,74.218750
399,74.218750
400,74.218750
401,74.218750
402,74.218750
403,70.312500
404,70.312500
405,70.312500
406,74.218750
407,70.312500
408,70.312500
409,70.312500
410,70.312500
411,70.312500
412,70.312500
413,70.312500
414,70.312500
415,70.312500
416,66.406250
417,66.406250
418,66.406250
419,66.406250
420,66.406250
421,66.406250
422,66.406250
423,66.406250
424,66.406250
425,66.406250
426,66.406250
427,66.406250
428,66.406250
429,62.500000
430,62.500000
431,62.500000
432,62.500000
433,62.500000
434,62.500000
435,62.500000
436,62.500000
437,62.500000
438,62.500000
439,62.500000
440,58.593750
441,58.593750
442,58.593750
443,58.593750
444,58.593750
445,58.593750
446,58.593750
447,58.593750
448,58.593750
449,54.687500
450,54.687500
451,54.687500
452,54.687500
453,54.687500
454,54.687500
455,54.687500
456,54.687500
457,54.687500
458,50.781250
459,50.781250
460,50.781250
461,50.781250
462,50.781250
463,50.781250
464,50.781250
465,50.781250
466,50.781250
467,46.875000
468,46.875000
469,46.875000
470,46.875000
471,46.875000
472,46.875000
473,46.875000
474,46.875000
475,46.875000
476,46.875000
477,42.968750
478,42.968750
479,42.968750
480,42.968750
481,42.968750
482,42.968750
483,42.968750
484,42.968750
485,39.062500
486,39.062500
487,39.062500
488,39.062500
489,39.062500
490,39.062500
491,39.062500
492,39.062500
493,35.156250
494,35.156250
495,35.156250
496,35.156250
497,35.156250
498,35.156250
499,35.156250
500,35.156250
501,31.250000
502,31.250000
503,31.250000
504,31.250000
505,31.250000
506,31.250000
507,27.343750
508,27.343750
509,27.343750
510,27.343750
511,27.343750
512,27.343750
513,23.437500
514,23.437500
515,23.437500
516,23.437500
517,23.437500
518,23.437500
519,23.437500
520,19.531250
521,19.531250
522,19.531250
523,19.531250
524,19.531250
525,19.531250
526,19.531250
527,15.625000
528,15.625000
529,15.625000
530,15.625000
531,15.625000
532,15.625000
533,15.625000
534,15.625000
535,11.718750
536,11.718750
537,11.718750
538,11.718750
539,11.718750
540,11.718750
541,7.812500
542,7.812500
543,7.812500
544,7.812500
545,7.812500
546,3.906250
547,3.906250
548,3.906250
549,3.906250
550,3.906250
551,3.906250
552,3.906250
553,3.906250
554,0.000000
555,0.000000
556,0.000000
557,0.000000
558,0.000000
559,0.000000
560,-3.906250
561,-3.906250
562,-3.906250
563,-3.906250
564,-3.906250
565,-3.906250
566,-3.906250
567,-7.812500
568,-7.812500
569,-7.812500
570,-7.812500
571,-7.812500
572,-7.812500
573,-11.718750
574,-11.718750
575,-11.718750
576,-11.718750
577,-11.718750
578,-15.625000
579,-15.625000
580,-15.625000
581,-15.625000
582,-15.625000
583,-15.625000
584,-15.625000
585,-19.531250
586,-19.531250
587,-19.531250
588,-19.531250
589,-19.531250
590,-23.437500
591,-19.531250
592,-23.437500
593,-23.437500
594,-23.437500
595,-23.437500
596,-23.437500
597,-27.343750
598,-27.343750
599,-27.343750
600,-27.343750
601,-27.343750
602,-27.343750
603,-27.343750
604,-31.250000
605,-31.250000
606,-31.250000
607,-31.250000
608,-31.250000
609,-31.250000
610,-35.156250
611,-35.156250
612,-35.156250
613,-35.156250
614,-39.062500
615,-35.156250
616,-39.062500
617,-39.062500
618,-39.062500
619,-39.062500
620,-39.062500
621,-42.968750
622,-42.968750
623,-42.968750
624,-42.968750
625,-42.968750
626,-42.968750
627,-42.968750
628,-42.968750
629,-46.875000
630,-46.875000
631,-46.875000
632,-46.875000
633,-46.875000
634,-50.781250
635,-50.781250
636,-50.781250
637,-50.781250
638,-50.781250
639,-50.781250
640,-50.781250
641,-54.687500
642,-54.687500
643,-54.687500
644,-54.687500
645,-54.687500
646,-54.687500
647,-54.687500
648,-58.593750
649,-58.593750
650,-58.593750
651,-58.593750
652,-58.593750
653,-58.593750
654,-58.593750
655,-58.593750
656,-62.500000
657,-62.500000
658,-62.500000
659,-62.500000
660,-66.406250
661,-66.406250
662,-66.406250
663,-66.406250
664,-66.406250
665,-66.406250
666,-66.406250
667,-66.406250
668,-70.312500
669,-70.312500
670,-70.312500
671,-70.312500
672,-70.312500
673,-70.312500
674,-70.312500
675,-70.312500
676,-74.218750
677,-74.218750
678,-74.218750
679,-74.218750
680,-74.218750
681,-74.218750
682,-74.218750
683,-78.125000
684,-78.125000
685,-78.125000
686,-78.125000
687,-78.125000
688,-78.125000
689,-78.125000
690,-78.125000
691,-82.031250
692,-82.031250
693,-82.031250
694,-82.031250
695,-82.031250
696,-82.031250
697,-82.031250
698,-82.031250
699,-85.937500
700,-85.937500
701,-85.937500
702,-85.937500
703,-85.937500
704,-85.937500
705,-85.937500
706,-85.937500
707,-89.843750
708,-89.843750
709,-89.843750
710,-89.843750
711,-89.843750
712,-89.843750
713,-89.843750
714,-89.843750
715,-89.843750
716,-89.843750
717,-93.750000
718,-93.750000
719,-93.750000
720,-93.750000
721,-93.750000
722,-93.750000
723,-93.750000
724,-93.750000
725,-93.750000
726,-97.656250
727,-97.656250
728,-97.656250
729,-97.656250
730,-97.656250
731,-97.656250
732,-97.656250
733,-97.656250
734,-97.656250
735,-97.656250
736,-97.656250
737,-101.562500
738,-101.562500
739,-101.562500
740,-101.562500
741,-101.562500
742,-101.562500
743,-101.562500
744,-101.562500
745,-101.562500
746,-101.562500
747,-101.562500
748,-105.468750
749,-105.468750
750,-105.468750
751,-105.468750
752,-105.468750
753,-105.468750
754,-105.468750
755,-105.468750
756,-105.468750
757,-105.468750
758,-105.468750
759,-105.468750
760,-105.468750
761,-105.468750
762,-109.375000
763,-105.468750
764,-109.375000
765,-105.468750
766,-105.468750
767,-109.375000
768,-109.375000
769,-109.375000
770,-109.375000
771,-109.375000
772,-109.375000
773,-109.375000
774,-109.375000
775,-109.375000
776,-109.375000
777,-109.375000
778,-109.375000
779,-109.375000
780,-109.375000
781,-109.375000
782,-113.281250
783,-113.281250
784,-113.281250
785,-113.281250
786,-109.375000
787,-109.375000
788,-113.281250
789,-113.281250
790,-113.281250
791,-113.281250
792,-113.281250
793,-113.281250
794,-113.281250
795,-113.281250
796,-113.281250
797,-113.281250
798,-113.281250
799,-113.281250
800,-113.281250
801,-113.281250
802,-113.281250
803,-113.281250
804,-113.281250
805,-113.281250
806,-113.281250
807,-113.281250
808,-113.281250
809,-113.281250
810,-113.281250
811,-113.281250
812,-113.281250
813,-113.281250
814,-113.281250
815,-113.281250
816,-113.281250
817,-113.281250
818,-113.281250
819,-113.281250
820,-113.281250
821,-113.281250
822,-113.281250
823,-113.281250
824,-113.281250
825,-113.281250
826,-113.281250
827,-113.281250
828,-113.281250
829,-113.281250
830,-113.281250
831,-113.281250
832,-113.281250
833,-113.281250
834,-113.281250
835,-113.281250
836,-113.281250
837,-113.281250
838,-113.281250
839,-113.281250
840,-113.281250
841,-113.281250
842,-113.281250
843,-113.281250
844,-113.281250
845,-113.281250
846,-113.281250
847,-113.281250
848,-113.281250
849,-113.281250
850,-113.281250
851,-113.281250
852,-113.281250
853,-113.281250
854,-109.375000
855,-109.375000
856,-109.375000
857,-109.375000
858,-109.375000
859,-109.375000
860,-109.375000
861,-109.375000
862,-109.375000
863,-109.375000
864,-109.375000
865,-109.375000
866,-109.375000
867,-109.375000
868,-109.375000
869,-105.468750
870,-105.468750
871,-109.375000
872,-105.468750
873,-105.468750
874,-105.468750
875,-105.468750
876,-105.468750
877,-105.468750
878,-105.468750
879,-105.468750
880,-105.468750
881,-105.468750
882,-105.468750
883,-105.468750
884,-105.468750
885,-105.468750
886,-105.468750
887,-105.468750
888,-101.562500
889,-101.562500
890,-101.562500
891,-101.562500
892,-101.562500
893,-101.562500
894,-101.562500
895,-101.562500
896,-101.562500
897,-101.562500
898,-97.656250
899,-101.562500
900,-97.656250
901,-97.656250
902,-97.656250
903,-97.656250
904,-97.656250
905,-97.656250
906,-97.656250
907,-97.656250
908,-97.656250
909,-97.656250
910,-93.750000
911,-93.750000
912,-93.750000
913,-93.750000
914,-93.750000
915,-93.750000
916,-93.750000
917,-93.750000
918,-93.750000
919,-89.843750
920,-89.843750
921,-89.843750
922,-89.843750
923,-89.843750
924,-89.843750
925,-89.843750
926,-89.843750
927,-89.843750
928,-89.843750
929,-89.843750
930,-89.843750
931,-85.937500
932,-85.937500
933,-85.937500
934,-85.937500
935,-85.937500
936,-85.937500
937,-82.031250
938,-82.031250
939,-82.031250
940,-82.031250
941,-82.031250
942,-82.031250
943,-82.031250
944,-82.031250
945,-78.125000
946,-78.125000
947,-78.125000
948,-78.125000
949,-78.125000
950,-78.125000
951,-78.125000
952,-78.125000
953,-78.125000
954,-74.218750
955,-74.218750
956,-74.218750
957,-74.218750
958,-74.218750
959,-74.218750
960,-74.218750
961,-70.312500
962,-70.312500
963,-70.312500
964,-70.312500
965,-70.312500
966,-70.312500
967,-70.312500
968,-70.312500
969,-66.406250
970,-66.406250
971,-66.406250
972,-66.406250
973,-66.406250
974,-66.406250
975,-66.406250
976,-62.500000
977,-62.500000
978,-62.500000
979,-62.500000
980,-62.500000
981,-62.500000
982,-62.500000
983,-58.593750
984,-58.593750
985,-58.593750
986,-58.593750
987,-58.593750
988,-58.593750
989,-54.687500
990,-54.687500
991,-54.687500
992,-54.687500
993,-54.687500
994,-54.687500
995,-54.687500
996,-50.781250
997,-50.781250
998,-50.781250
999,-50.781250
1000,-50.781250
1001,-46.875000
1002,-46.875000
1003,-46.875000
1004,-46.875000
1005,-46.875000
1006,-46.875000
1007,-46.875000
1008,-46.875000
1009,-42.968750
1010,-42.968750
1011,-42.968750
1012,-42.968750
1013,-42.968750
1014,-39.062500
1015,-39.062500
1016,-39.062500
1017,-39.062500
1018,-39.062500
1019,-39.062500
1020,-39.062500
1021,-35.156250
1022,-35.156250
1023,-35.156250
1024,-35.156250
1025,-35.156250
1026,-35.156250
1027,-31.250000
1028,-31.250000
1029,-31.250000
1030,-31.250000
1031,-31.250000
1032,-27.343750
1033,-27.343750
1034,-27.343750
1035,-27.343750
1036,-27.343750
1037,-27.343750
1038,-27.343750
1039,-27.343750
1040,-23.437500
1041,-23.437500
1042,-23.437500
1043,-23.437500
1044,-23.437500
1045,-19.531250
1046,-19.531250
1047,-19.531250
1048,-19.531250
1049,-19.531250
1050,-19.531250
1051,-15.625000
1052,-15.625000
1053,-15.625000
1054,-15.625000
1055,-15.625000
1056,-15.625000
1057,-15.625000
1058,-11.718750
1059,-11.718750
1060,-11.718750
1061,-11.718750
1062,-11.718750
1063,-11.718750
1064,-7.812500
1065,-7.812500
1066,-7.812500
1067,-7.812500
1068,-7.812500
1069,-7.812500
1070,-7.812500
1071,-3.906250
1072,-3.906250
1073,-3.906250
1074,-3.906250
1075,-3.906250
1076,0.000000
1077,0.000000
1078,0.000000
1079,0.000000
1080,0.000000
1081,0.000000
1082,0.000000
1083,3.906250
1084,3.906250
1085,3.906250
1086,3.906250
1087,3.906250
1088,3.906250
1089,3.906250
1090,7.812500
1091,7.812500
1092,7.812500
1093,7.812500
1094,7.812500
1095,7.812500
1096,11.718750
1097,11.718750
1098,11.718750
1099,11.718750
1100,11.718750
1101,11.718750
1102,15.625000
1103,15.625000
1104,15.625000
1105,15.625000
1106,15.625000
1107,15.625000
1108,15.625000
1109,19.531250
1110,19.531250
1111,19.531250
1112,19.531250
1113,19.531250
1114,19.531250
1115,19.531250
1116,23.437500
1117,23.437500
1118,23.437500
1119,23.437500
1120,23.437500
1121,23.437500
1122,23.437500
1123,27.343750
1124,27.343750
1125,27.343750
1126,27.343750
1127,27.343750
1128,27.343750
1129,27.343750
1130,31.250000
1131,31.250000
1132,31.250000
1133,31.250000
1134,31.250000
1135,31.250000
1136,35.156250
1137,31.250000
1138,35.156250
1139,35.156250
1140,35.156250
1141,35.156250
1142,35.156250
1143,35.156250
1144,39.062500
1145,39.062500
1146,39.062500
1147,39.062500
1148,39.062500
1149,39.062500
1150,39.062500
1151,42.968750
1152,39.062500
1153,42.968750
1154,42.968750
1155,42.968750
1156,42.968750
1157,42.968750
1158,42.968750
1159,42.968750
1160,46.875000
1161,46.875000
1162,46.875000
1163,46.875000
1164,46.875000
1165,46.875000
1166,46.875000
1167,46.875000
1168,50.781250
1169,50.781250
1170,50.781250
1171,50.781250
1172,50.781250
1173,50.781250
1174,50.781250
1175,50.781250
1176,50.781250
1177,50.781250
1178,50.781250
1179,54.687500
1180,54.687500
1181,54.687500
1182,54.687500
1183,54.687500
1184,54.687500
1185,54.687500
1186,54.687500
1187,54.687500
1188,58.593750
1189,58.593750
1190,58.593750
1191,58.593750
1192,58.593750
1193,58.593750
1194,58.593750
1195,58.593750
1196,58.593750
1197,58.593750
1198,62.500000
1199,62.500000
1200,62.500000
1201,62.500000
1202,62.500000
1203,62.500000
1204,62.500000
1205,62.500000
1206,62.500000
1207,66.406250
1208,66.406250
1209,66.406250
1210,66.406250
1211,66.406250
1212,66.406250
1213,66.406250
1214,66.406250
1215,66.406250
1216,66.406250
1217,66.406250
1218,70.312500
1219,66.406250
1220,70.312500
1221,70.312500
1222,70.312500
1223,70.312500
1224,70.312500
1225,70.312500
1226,70.312500
1227,70.312500
1228,70.312500
1229,70.312500
1230,70.312500
1231,70.312500
1232,70.312500
1233,70.312500
1234,70.312500
1235,70.312500
1236,74.218750
1237,74.218750
1238,74.218750
1239,74.218750
1240,74.218750
1241,74.218750
1242,74.218750
1243,74.218750
1244,74.218750
1245,74.218750
1246,74.218750
1247,74.218750
1248,74.218750
1249,74.218750
1250,74.218750
1251,78.125000
1252,74.218750
1253,74.218750
1254,78.125000
1255,78.125000
1256,78.125000
1257,78.125000
1258,78.125000
1259,78.125000
1260,78.125000
1261,78.125000
1262,78.125000
1263,78.125000
1264,78.125000
1265,78.125000
1266,78.125000
1267,78.125000
1268,78.125000
1269,78.125000
1270,78.125000
1271,78.125000
1272,82.031250
1273,82.031250
1274,82.031250
1275,82.031250
1276,82.031250
1277,82.031250
1278,82.031250
1279,82.031250
1280,82.031250
1281,82.031250
1282,82.031250
1283,82.031250
1284,82.031250
1285,82.031250
1286,82.031250
1287,82.031250
1288,82.031250
1289,82.031250
1290,82.031250
1291,82.031250
1292,82.031250
1293,82.031250
1294,82.031250
1295,82.031250
1296,82.031250
1297,82.031250
1298,82.031250
1299,82.031250
1300,82.031250
1301,82.031250
1302,82.031250
1303,82.031250
1304,82.031250
1305,82.031250
1306,82.031250
1307,82.031250
1308,82.031250
1309,82.031250
1310,82.031250
1311,82.031250
1312,82.031250
1313,82.031250
1314,82.031250
1315,82.031250
1316,82.031250
1317,82.031250
1318,82.031250
1319,82.031250
1320,82.031250
1321,82.031250
1322,82.031250
1323,82.031250
1324,82.031250
1325,82.031250
1326,82.031250
1327,82.031250
1328,82.031250
1329,82.031250
1330,82.031250
1331,82.031250
1332,82.031250
1333,82.031250
1334,82.031250
1335,82.031250
1336,82.031250
1337,82.031250
1338,82.031250
1339,82.031250
1340,82.031250
1341,82.031250
1342,82.031250
1343,82.031250
1344,82.031250
1345,82.031250
1346,82.031250
1347,82.031250
1348,78.125000
1349,78.125000
1350,78.125000
1351,82.031250
1352,78.125000
1353,78.125000
1354,78.125000
1355,78.125000
1356,78.125000
1357,78.125000
1358,78.125000
1359,78.125000
1360,78.125000
1361,78.125000
1362,78.125000
1363,78.125000
1364,78.125000
1365,78.125000
1366,78.125000
1367,78.125000
1368,78.125000
1369,78.125000
1370,78.125000
1371,78.125000
1372,78.125000
1373,74.218750
1374,78.125000
1375,74.218750
1376,74.218750
1377,74.218750
1378,74.218750
1379,74.218750
1380,74.218750
1381,74.218750
1382,74.218750
1383,74.218750
1384,74.218750
1385,74.218750
1386,74.218750
1387,74.218750
1388,74.218750
1389,74.218750
1390,70.312500
1391,74.218750
1392,70.312500
1393,70.312500
1394,70.312500
1395,70.312500
1396,70.312500
1397,70.312500
1398,70.312500
1399,70.312500
1400,70.312500
1401,70.312500
1402,70.312500
1403,70.312500
1404,70.312500
1405,66.406250
1406,70.312500
1407,66.406250
1408,66.406250
1409,66.406250
1410,66.406250
1411,66.406250
1412,66.406250
1413,66.406250
1414,66.406250
1415,66.406250
1416,66.406250
1417,66.406250
1418,66.406250
1419,62.500000
1420,62.500000
1421,62.500000
1422,62.500000
1423,62.500000
1424,62.500000
1425,62.500000
1426,62.500000
1427,62.500000
1428,62.500000
1429,62.500000
1430,58.593750
1431,58.593750
1432,58.593750
1433,58.593750
1434,58.593750
1435,58.593750
1436,58.593750
1437,58.593750
1438,58.593750
1439,54.687500
1440,54.687500
1441,54.687500
1442,54.687500
1443,54.687500
1444,54.687500
1445,54.687500
1446,54.687500
1447,54.687500
1448,54.687500
1449,54.687500
1450,50.781250
1451,50.781250
1452,50.781250
1453,50.781250
1454,50.781250
1455,50.781250
1456,46.875000
1457,46.875000
1458,46.875000
1459,46.875000
1460,46.875000
1461,46.875000
1462,46.875000
1463,46.875000
1464,46.875000
1465,42.968750
1466,42.968750
1467,42.968750
1468,42.968750
1469,42.968750
1470,42.968750
1471,42.968750
1472,42.968750
1473,42.968750
1474,39.062500
1475,39.062500
1476,39.062500
1477,39.062500
1478,39.062500
1479,39.062500
1480,39.062500
1481,35.156250
1482,35.156250
1483,35.156250
1484,35.156250
1485,35.156250
1486,35.156250
1487,35.156250
1488,35.156250
1489,31.250000
1490,31.250000
1491,31.250000
1492,31.250000
1493,31.250000
1494,31.250000
1495,31.250000
1496,27.343750
1497,27.343750
1498,27.343750
1499,27.343750
1500,27.343750
1501,27.343750
1502,27.343750
1503,23.437500
1504,23.437500
1505,23.437500
1506,23.437500
1507,23.437500
1508,23.437500
1509,23.437500
1510,23.437500
1511,19.531250
1512,19.531250
1513,19.531250
1514,19.531250
1515,19.531250
1516,19.531250
1517,15.625000
1518,15.625000
1519,15.625000
1520,15.625000
1521,15.625000
1522,15.625000
1523,11.718750
1524,11.718750
1525,11.718750
1526,11.718750
1527,11.718750
1528,11.718750
1529,11.718750
1530,7.812500
1531,7.812500
1532,7.812500
1533,7.812500
1534,7.812500
1535,7.812500
1536,7.812500
1537,3.906250
1538,3.906250
1539,3.906250
1540,3.906250
1541,3.906250
1542,3.906250
1543,0.000000
1544,0.000000
1545,0.000000
1546,0.000000
1547,0.000000
1548,0.000000
1549,-3.906250
1550,-3.906250
1551,-3.906250
1552,-3.906250
1553,-3.906250
1554,-3.906250
1555,-7.812500
1556,-7.812500
1557,-3.906250
1558,-7.812500
1559,-7.812500
1560,-7.812500
1561,-7.812500
1562,-11.718750
1563,-11.718750
1564,-11.718750
1565,-11.718750
1566,-11.718750
1567,-11.718750
1568,-15.625000
1569,-15.625000
1570,-15.625000
1571,-15.625000
1572,-15.625000
1573,-15.625000
1574,-19.531250
1575,-19.531250
1576,-19.531250
1577,-19.531250
1578,-19.531250
1579,-19.531250
1580,-23.437500
1581,-23.437500
1582,-23.437500
1583,-23.437500
1584,-23.437500
1585,-23.437500
1586,-27.343750
1587,-27.343750
1588,-27.343750
1589,-27.343750
1590,-27.343750
1591,-27.343750
1592,-31.250000
1593,-31.250000
1594,-31.250000
1595,-31.250000
1596,-31.250000
1597,-31.250000
1598,-31.250000
1599,-35.156250
1600,-35.156250
1601,-35.156250
1602,-35.156250
1603,-35.156250
1604,-39.062500
1605,-39.062500
1606,-39.062500
1607,-39.062500
1608,-39.062500
1609,-39.062500
1610,-42.968750
1611,-42.968750
1612,-42.968750
1613,-42.968750
1614,-42.968750
1615,-42.968750
1616,-42.968750
1617,-46.875000
1618,-46.875000
1619,-46.875000
1620,-46.875000
1621,-46.875000
1622,-46.875000
1623,-50.781250
1624,-50.781250
1625,-50.781250
1626,-50.781250
1627,-50.781250
1628,-50.781250
1629,-50.781250
1630,-50.781250
1631,-54.687500
1632,-54.687500
1633,-54.687500
1634,-54.687500
1635,-54.687500
1636,-58.593750
1637,-58.593750
1638,-58.593750
1639,-58.593750
1640,-58.593750
1641,-58.593750
1642,-58.593750
1643,-58.593750
1644,-62.500000
1645,-62.500000
1646,-62.500000
1647,-62.500000
1648,-62.500000
1649,-62.500000
1650,-62.500000
1651,-66.406250
1652,-66.406250
1653,-66.406250
1654,-66.406250
1655,-66.406250
1656,-66.406250
1657,-70.312500
1658,-70.312500
1659,-70.312500
1660,-70.312500
1661,-70.312500
1662,-70.312500
1663,-70.312500
1664,-70.312500
1665,-74.218750
1666,-74.218750
1667,-74.218750
1668,-74.218750
1669,-74.218750
1670,-74.218750
1671,-78.125000
1672,-78.125000
1673,-78.125000
1674,-78.125000
1675,-78.125000
1676,-78.125000
1677,-78.125000
1678,-78.125000
1679,-82.031250
1680,-82.031250
1681,-82.031250
1682,-82.031250
1683,-82.031250
1684,-82.031250
1685,-82.031250
1686,-82.031250
1687,-85.937500
1688,-85.937500
1689,-85.937500
1690,-85.937500
1691,-85.937500
1692,-85.937500
1693,-85.937500
1694,-85.937500
1695,-89.843750
1696,-89.843750
1697,-89.843750
1698,-89.843750
1699,-89.843750
1700,-89.843750
1701,-89.843750
1702,-89.843750
1703,-89.843750
1704,-89.843750
1705,-93.750000
1706,-93.750000
1707,-93.750000
1708,-93.750000
1709,-93.750000
1710,-93.750000
1711,-97.656250
1712,-93.750000
1713,-93.750000
1714,-93.750000
1715,-97.656250
1716,-97.656250
1717,-97.656250
1718,-97.656250
1719,-97.656250
1720,-97.656250
1721,-97.656250
1722,-97.656250
1723,-97.656250
1724,-97.656250
1725,-97.656250
1726,-101.562500
1727,-101.562500
1728,-101.562500
1729,-101.562500
1730,-101.562500
1731,-101.562500
1732,-101.562500
1733,-101.562500
1734,-101.562500
1735,-101.562500
1736,-101.562500
1737,-105.468750
1738,-105.468750
1739,-105.468750
1740,-105.468750
1741,-105.468750
1742,-105.468750
1743,-105.468750
1744,-105.468750
1745,-105.468750
1746,-105.468750
1747,-105.468750
1748,-105.468750
1749,-105.468750
1750,-105.468750
1751,-105.468750
1752,-109.375000
1753,-109.375000
1754,-109.375000
1755,-109.375000
1756,-109.375000
1757,-109.375000
1758,-109.375000
1759,-109.375000
1760,-109.375000
1761,-109.375000
1762,-109.375000
1763,-109.375000
1764,-109.375000
1765,-109.375000
1766,-109.375000
1767,-109.375000
1768,-109.375000
1769,-109.375000
1770,-113.281250
1771,-109.375000
1772,-109.375000
1773,-109.375000
1774,-113.281250
1775,-113.281250
1776,-109.375000
1777,-113.281250
1778,-113.281250
1779,-113.281250
1780,-113.281250
1781,-113.281250
1782,-113.281250
1783,-113.281250
1784,-113.281250
1785,-113.281250
1786,-113.281250
1787,-113.281250
1788,-113.281250
1789,-113.281250
1790,-113.281250
1791,-113.281250
1792,-113.281250
1793,-113.281250
1794,-113.281250
1795,-113.281250
1796,-113.281250
1797,-113.281250
1798,-113.281250
1799,-113.281250
1800,-113.281250
1801,-113.281250
1802,-113.281250
1803,-113.281250
1804,-113.281250
1805,-113.281250
1806,-113.281250
1807,-113.281250
1808,-113.281250
1809,-113.281250
1810,-113.281250
1811,-113.281250
1812,-113.281250
1813,-113.281250
1814,-113.281250
1815,-113.281250
1816,-113.281250
1817,-113.281250
1818,-113.281250
1819,-113.281250
1820,-113.281250
1821,-113.281250
1822,-113.281250
1823,-113.281250
1824,-113.281250
1825,-113.281250
1826,-113.281250
1827,-113.281250
1828,-113.281250
1829,-113.281250
1830,-113.281250
1831,-113.281250
1832,-113.281250
1833,-113.281250
1834,-113.281250
1835,-113.281250
1836,-113.281250
1837,-113.281250
1838,-113.281250
1839,-113.281250
1840,-113.281250
1841,-113.281250
1842,-113.281250
1843,-109.375000
1844,-109.375000
1845,-109.375000
1846,-109.375000
1847,-109.375000
1848,-109.375000
1849,-109.375000
1850,-109.375000
1851,-109.375000
1852,-109.375000
1853,-109.375000
1854,-109.375000
1855,-109.375000
1856,-109.375000
1857,-109.375000
1858,-109.375000
1859,-109.375000
1860,-109.375000
1861,-109.375000
1862,-105.468750
1863,-105.468750
1864,-109.375000
1865,-105.468750
1866,-105.468750
1867,-105.468750
1868,-105.468750
1869,-105.468750
1870,-105.468750
1871,-105.468750
1872,-105.468750
1873,-105.468750
1874,-105.468750
1875,-101.562500
1876,-105.468750
1877,-101.562500
1878,-101.562500
1879,-101.562500
1880,-101.562500
1881,-101.562500
1882,-101.562500
1883,-101.562500
1884,-101.562500
1885,-101.562500
1886,-101.562500
1887,-101.562500
1888,-101.562500
1889,-101.562500
1890,-97.656250
1891,-97.656250
1892,-97.656250
1893,-97.656250
1894,-97.656250
1895,-97.656250
1896,-97.656250
1897,-97.656250
1898,-97.656250
1899,-93.750000
1900,-93.750000
1901,-93.750000
1902,-93.750000
1903,-93.750000
1904,-93.750000
1905,-93.750000
1906,-93.750000
1907,-93.750000
1908,-93.750000
1909,-93.750000
1910,-89.843750
1911,-89.843750
1912,-89.843750
1913,-89.843750
1914,-89.843750
1915,-89.843750
1916,-89.843750
1917,-89.843750
1918,-89.843750
1919,-85.937500
1920,-85.937500
1921,-85.937500
1922,-85.937500
1923,-85.937500
1924,-85.937500
1925,-85.937500
1926,-85.937500
1927,-82.031250
1928,-82.031250
1929,-82.031250
1930,-82.031250
1931,-82.031250
1932,-82.031250
1933,-82.031250
1934,-82.031250
1935,-78.125000
1936,-78.125000
1937,-78.125000
1938,-78.125000
1939,-78.125000
1940,-78.125000
1941,-78.125000
1942,-78.125000
1943,-74.218750
1944,-74.218750
1945,-74.218750
1946,-74.218750
1947,-74.218750
1948,-74.218750
1949,-74.218750
1950,-74.218750
1951,-70.312500
1952,-70.312500
1953,-70.312500
1954,-70.312500
1955,-70.312500
1956,-70.312500
1957,-66.406250
1958,-66.406250
1959,-66.406250
1960,-66.406250
1961,-66.406250
1962,-66.406250
1963,-66.406250
1964,-66.406250
1965,-62.500000
1966,-62.500000
1967,-62.500000
1968,-62.500000
1969,-62.500000
1970,-62.500000
1971,-62.500000
1972,-58.593750
1973,-58.593750
1974,-58.593750
1975,-58.593750
1976,-58.593750
1977,-54.687500
1978,-54.687500
1979,-54.687500
1980,-54.687500
1981,-54.687500
1982,-54.687500
1983,-54.687500
1984,-54.687500
1985,-50.781250
1986,-50.781250
1987,-50.781250
1988,-50.781250
1989,-50.781250
1990,-50.781250
1991,-50.781250
1992,-46.875000
1993,-46.875000
1994,-46.875000
1995,-46.875000
1996,-46.875000
1997,-46.875000
1998,-42.968750
1999,-42.968750
2000,-42.968750
2001,-42.968750
2002,-42.968750
2003,-42.968750
2004,-39.062500
2005,-39.062500
2006,-39.062500
2007,-39.062500
2008,-39.062500
2009,-39.062500
2010,-35.156250
2011,-35.156250
2012,-35.156250
2013,-35.156250
2014,-35.156250
2015,-35.156250
2016,-35.156250
2017,-35.156250
2018,-31.250000
2019,-31.250000
2020,-31.250000
2021,-31.250000
2022,-27.343750
2023,-31.250000
2024,-27.343750
2025,-27.343750
2026,-27.343750
2027,-27.343750
2028,-27.343750
2029,-23.437500
2030,-23.437500
2031,-23.437500
2032,-23.437500
2033,-23.437500
2034,-23.437500
2035,-19.531250
2036,-19.531250
2037,-19.531250
2038,-19.531250
2039,-19.531250
2040,-19.531250
2041,-15.625000
2042,-15.625000
2043,-15.625000
2044,-15.625000
2045,-15.625000
2046,-15.625000
2047,-11.718750
2048,-11.718750
2049,-11.718750
2050,-11.718750
2051,-11.718750
2052,-11.718750
2053,-7.812500
2054,-7.812500
2055,-7.812500
2056,-7.812500
2057,-7.812500
2058,-7.812500
2059,-7.812500
2060,-3.906250
2061,-3.906250
2062,-3.906250
2063,-3.906250
2064,-3.906250
2065,-3.906250
2066,0.000000
2067,0.000000
2068,0.000000
2069,0.000000
2070,0.000000
2071,0.000000
2072,3.906250
2073,3.906250
2074,3.906250
2075,3.906250
2076,3.906250
2077,3.906250
2078,3.906250
2079,7.812500
2080,7.812500
2081,7.812500
2082,7.812500
2083,7.812500
2084,11.718750
2085,11.718750
2086,11.718750
2087,11.718750
2088,11.718750
2089,11.718750
2090,11.718750
2091,15.625000
2092,15.625000
2093,15.625000
2094,15.625000
2095,15.625000
2096,15.625000
2097,15.625000
2098,15.625000
2099,19.531250
2100,19.531250
2101,19.531250
2102,19.531250
2103,19.531250
2104,19.531250
2105,19.531250
2106,23.437500
2107,23.437500
2108,23.437500
2109,23.437500
2110,23.437500
2111,23.437500
2112,23.437500
2113,27.343750
2114,27.343750
2115,27.343750
2116,27.343750
2117,27.343750
2118,27.343750
2119,31.250000
2120,31.250000
2121,31.250000
2122,31.250000
2123,31.250000
2124,31.250000
2125,31.250000
2126,35.156250
2127,35.156250
2128,35.156250
2129,35.156250
2130,35.156250
2131,35.156250
2132,35.156250
2133,35.156250
2134,39.062500
2135,39.062500
2136,39.062500
2137,39.062500
2138,39.062500
2139,39.062500
2140,39.062500
2141,39.062500
2142,42.968750
2143,42.968750
2144,42.968750
2145,42.968750
2146,42.968750
2147,42.968750
2148,42.968750
2149,42.968750
2150,46.875000
2151,46.875000
2152,46.875000
2153,46.875000
2154,46.875000
2155,46.875000
2156,46.875000
2157,46.875000
2158,46.875000
2159,50.781250
2160,50.781250
2161,50.781250
2162,50.781250
2163,50.781250
2164,50.781250
2165,50.781250
2166,54.687500
2167,54.687500
2168,54.687500
2169,54.687500
2170,54.687500
2171,54.687500
2172,54.687500
2173,54.687500
2174,54.687500
2175,54.687500
2176,58.593750
2177,58.593750
2178,58.593750
2179,58.593750
2180,58.593750
2181,58.593750
2182,58.593750
2183,58.593750
2184,58.593750
2185,58.593750
2186,62.500000
2187,62.500000
2188,62.500000
2189,62.500000
2190,62.500000
2191,62.500000
2192,62.500000
2193,62.500000
2194,62.500000
2195,62.500000
2196,62.500000
2197,62.500000
2198,62.500000
2199,62.500000
2200,66.406250
2201,66.406250
2202,66.406250
2203,66.406250
2204,66.406250
2205,66.406250
2206,66.406250
2207,66.406250
2208,66.406250
2209,70.312500
2210,70.312500
2211,70.312500
2212,70.312500
2213,70.312500
2214,70.312500
2215,70.312500
2216,70.312500
2217,70.312500
2218,70.312500
2219,70.312500
2220,70.312500
2221,70.312500
2222,70.312500
2223,70.312500
2224,74.218750
2225,74.218750
2226,74.218750
2227,74.218750
2228,74.218750
2229,74.218750
2230,74.218750
2231,74.218750
2232,74.218750
2233,74.218750
2234,74.218750
2235,74.218750
2236,74.218750
2237,74.218750
2238,74.218750
2239,74.218750
2240,74.218750
2241,74.218750
2242,78.125000
2243,78.125000
2244,78.125000
2245,78.125000
2246,78.125000
2247,78.125000
2248,78.125000
2249,78.125000
2250,78.125000
2251,78.125000
2252,78.125000
2253,78.125000
2254,78.125000
2255,78.125000
2256,78.125000
2257,78.125000
2258,78.125000
2259,78.125000
2260,78.125000
2261,78.125000
2262,78.125000
2263,78.125000
2264,82.031250
2265,78.125000
2266,82.031250
2267,82.031250
2268,82.031250
2269,82.031250
2270,82.031250
2271,82.031250
2272,82.031250
2273,82.031250
2274,82.031250
2275,82.031250
2276,82.031250
2277,82.031250
2278,82.031250
2279,82.031250
2280,82.031250
2281,82.031250
2282,82.031250
2283,82.031250
2284,82.031250
2285,82.031250
2286,82.031250
2287,82.031250
2288,82.031250
2289,82.031250
2290,82.031250
2291,82.031250
2292,82.031250
2293,82.031250
2294,82.031250
2295,82.031250
2296,82.031250
2297,82.031250
2298,82.031250
2299,82.031250
2300,82.031250
2301,82.031250
2302,82.031250
2303,82.031250
2304,82.031250
2305,82.031250
2306,82.031250
2307,82.031250
2308,82.031250
2309,82.031250
2310,82.031250
2311,82.031250
2312,82.031250
2313,82.031250
2314,82.031250
2315,82.031250
2316,82.031250
2317,82.031250
2318,82.031250
2319,82.031250
2320,82.031250
2321,82.031250
2322,82.031250
2323,82.031250
2324,82.031250
2325,82.031250
2326,82.031250
2327,82.031250
2328,82.031250
2329,82.031250
2330,82.031250
2331,82.031250
2332,82.031250
2333,82.031250
2334,82.031250
2335,82.031250
2336,82.031250
2337,82.031250
2338,82.031250
2339,82.031250
2340,78.125000
2341,78.125000
2342,78.125000
2343,78.125000
2344,82.031250
2345,78.125000
2346,78.125000
2347,78.125000
2348,78.125000
2349,78.125000
2350,78.125000
2351,78.125000
2352,78.125000
2353,78.125000
2354,78.125000
2355,78.125000
2356,78.125000
2357,78.125000
2358,78.125000
2359,78.125000
2360,78.125000
2361,78.125000
2362,78.125000
2363,74.218750
2364,78.125000
2365,78.125000
2366,74.218750
2367,74.218750
2368,78.125000
2369,74.218750
2370,74.218750
2371,74.218750
2372,74.218750
2373,74.218750
2374,74.218750
2375,74.218750
2376,74.218750
2377,74.218750
2378,74.218750
2379,70.312500
2380,70.312500
2381,70.312500
2382,70.312500
2383,70.312500
2384,70.312500
2385,70.312500
2386,70.312500
2387,70.312500
2388,70.312500
2389,70.312500
2390,70.312500
2391,70.312500
2392,70.312500
2393,70.312500
2394,70.312500
2395,70.312500
2396,70.312500
2397,66.406250
2398,66.406250
2399,66.406250
2400,66.406250
2401,66.406250
2402,66.406250
2403,66.406250
2404,66.406250
2405,66.406250
2406,66.406250
2407,66.406250
2408,62.500000
2409,62.500000
2410,62.500000
2411,62.500000
2412,62.500000
2413,58.593750
2414,62.500000
2415,62.500000
2416,62.500000
2417,58.593750
2418,62.500000
2419,58.593750
2420,58.593750
2421,58.593750
2422,58.593750
2423,58.593750
2424,58.593750
2425,58.593750
2426,58.593750
2427,58.593750
2428,58.593750
2429,54.687500
2430,54.687500
2431,54.687500
2432,54.687500
2433,54.687500
2434,54.687500
2435,54.687500
2436,54.687500
2437,54.687500
2438,54.687500
2439,50.781250
2440,50.781250
2441,50.781250
2442,50.781250
2443,50.781250
2444,50.781250
2445,50.781250
2446,50.781250
2447,46.875000
2448,46.875000
2449,46.875000
2450,46.875000
2451,46.875000
2452,46.875000
2453,46.875000
2454,46.875000
2455,46.875000
2456,42.968750
2457,42.968750
2458,42.968750
2459,42.968750
2460,42.968750
2461,42.968750
2462,42.968750
2463,39.062500
2464,39.062500
2465,39.062500
2466,39.062500
2467,39.062500
2468,39.062500
2469,39.062500
2470,39.062500
2471,39.062500
2472,35.156250
2473,35.156250
2474,35.156250
2475,35.156250
2476,35.156250
2477,35.156250
2478,35.156250
2479,35.156250
2480,31.250000
2481,31.250000
2482,31.250000
2483,31.250000
2484,31.250000
2485,31.250000
2486,27.343750
2487,27.343750
2488,27.343750
2489,27.343750
2490,27.343750
2491,27.343750
2492,27.343750
2493,23.437500
2494,23.437500
2495,23.437500
2496,23.437500
2497,23.437500
2498,23.437500
2499,23.437500
2500,19.531250
2501,19.531250
2502,19.531250
2503,19.531250
2504,15.625000
2505,15.625000
2506,15.625000
2507,15.625000
2508,15.625000
2509,15.625000
2510,15.625000
2511,15.625000
2512,11.718750
2513,11.718750
2514,11.718750
2515,11.718750
2516,11.718750
2517,11.718750
2518,11.718750
2519,11.718750
2520,7.812500
2521,7.812500
2522,7.812500
2523,7.812500
2524,7.812500
2525,3.906250
2526,3.906250
2527,3.906250
2528,3.906250
2529,3.906250
2530,3.906250
2531,3.906250
2532,3.906250
2533,0.000000
2534,0.000000
2535,0.000000
2536,0.000000
2537,0.000000
2538,0.000000
2539,-3.906250
2540,-3.906250
2541,-3.906250
2542,-3.906250
2543,-3.906250
2544,-3.906250
2545,-3.906250
2546,-7.812500
2547,-7.812500
2548,-7.812500
2549,-7.812500
2550,-7.812500
2551,-7.812500
2552,-11.718750
2553,-11.718750
2554,-11.718750
2555,-11.718750
2556,-11.718750
2557,-11.718750
2558,-15.625000
2559,-15.625000
2560,-15.625000
2561,-15.625000
2562,-15.625000
2563,-15.625000
2564,-19.531250
2565,-19.531250
2566,-19.531250
2567,-19.531250
2568,-19.531250
2569,-23.437500
2570,-23.437500
2571,-23.437500
2572,-23.437500
2573,-23.437500
2574,-23.437500
2575,-23.437500
2576,-27.343750
2577,-27.343750
2578,-27.343750
2579,-27.343750
2580,-27.343750
2581,-27.343750
2582,-31.250000
2583,-31.250000
2584,-31.250000
2585,-31.250000
2586,-31.250000
2587,-31.250000
2588,-35.156250
2589,-35.156250
2590,-35.156250
2591,-35.156250
2592,-35.156250
2593,-35.156250
2594,-39.062500
2595,-39.062500
2596,-39.062500
2597,-39.062500
2598,-39.062500
2599,-39.062500
2600,-42.968750
2601,-42.968750
2602,-42.968750
2603,-42.968750
2604,-42.968750
2605,-42.968750
2606,-42.968750
2607,-46.875000
2608,-46.875000
2609,-46.875000
2610,-46.875000
2611,-46.875000
2612,-46.875000
2613,-50.781250
2614,-50.781250
2615,-50.781250
2616,-50.781250
2617,-50.781250
2618,-50.781250
2619,-50.781250
2620,-54.687500
2621,-54.687500
2622,-54.687500
2623,-54.687500
2624,-54.687500
2625,-58.593750
2626,-54.687500
2627,-58.593750
2628,-58.593750
2629,-58.593750
2630,-58.593750
2631,-58.593750
2632,-62.500000
2633,-62.500000
2634,-62.500000
2635,-62.500000
2636,-62.500000
2637,-62.500000
2638,-62.500000
2639,-62.500000
2640,-66.406250
2641,-66.406250
2642,-66.406250
2643,-66.406250
2644,-66.406250
2645,-66.406250
2646,-70.312500
2647,-70.312500
2648,-70.312500
2649,-70.312500
2650,-70.312500
2651,-70.312500
2652,-70.312500
2653,-74.218750
2654,-70.312500
2655,-74.218750
2656,-74.218750
2657,-74.218750
2658,-74.218750
2659,-74.218750
2660,-74.218750
2661,-74.218750
2662,-78.125000
2663,-78.125000
2664,-78.125000
2665,-78.125000
2666,-78.125000
2667,-78.125000
2668,-78.125000
2669,-78.125000
2670,-82.031250
2671,-82.031250
2672,-82.031250
2673,-82.031250
2674,-82.031250
2675,-82.031250
2676,-82.031250
2677,-82.031250
2678,-85.937500
2679,-85.937500
2680,-85.937500
2681,-85.937500
2682,-85.937500
2683,-85.937500
2684,-85.937500
2685,-85.937500
2686,-89.843750
2687,-89.843750
2688,-89.843750
2689,-89.843750
2690,-89.843750
2691,-89.843750
2692,-89.843750
2693,-89.843750
2694,-89.843750
2695,-89.843750
2696,-93.750000
2697,-93.750000
2698,-93.750000
2699,-93.750000
2700,-93.750000
2701,-93.750000
2702,-93.750000
2703,-93.750000
2704,-93.750000
2705,-97.656250
2706,-97.656250
2707,-97.656250
2708,-97.656250
2709,-97.656250
2710,-97.656250
2711,-97.656250
2712,-97.656250
2713,-97.656250
2714,-97.656250
2715,-97.656250
2716,-101.562500
2717,-101.562500
2718,-101.562500
2719,-101.562500
2720,-101.562500
2721,-101.562500
2722,-101.562500
2723,-101.562500
2724,-101.562500
2725,-101.562500
2726,-101.562500
2727,-101.562500
2728,-105.468750
2729,-105.468750
2730,-105.468750
2731,-105.468750
2732,-105.468750
2733,-105.468750
2734,-105.468750
2735,-105.468750
2736,-105.468750
2737,-105.468750
2738,-105.468750
2739,-105.468750
2740,-109.375000
2741,-109.375000
2742,-109.375000
2743,-109.375000
2744,-109.375000
2745,-109.375000
2746,-109.375000
2747,-109.375000
2748,-109.375000
2749,-109.375000
2750,-109.375000
2751,-109.375000
2752,-109.375000
2753,-109.375000
2754,-109.375000
2755,-109.375000
2756,-109.375000
2757,-109.375000
2758,-109.375000
2759,-109.375000
2760,-113.281250
2761,-113.281250
2762,-113.281250
2763,-113.281250
2764,-113.281250
2765,-113.281250
2766,-113.281250
2767,-113.281250
2768,-113.281250
2769,-113.281250
2770,-113.281250
2771,-113.281250
2772,-113.281250
2773,-113.281250
2774,-113.281250
2775,-113.281250
2776,-113.281250
2777,-113.281250
2778,-113.281250
2779,-113.281250
2780,-113.281250
2781,-113.281250
2782,-113.281250
2783,-113.281250
2784,-113.281250
2785,-113.281250
2786,-113.281250
2787,-113.281250
2788,-113.281250
2789,-113.281250
2790,-113.281250
2791,-113.281250
2792,-113.281250
2793,-113.281250
2794,-113.281250
2795,-117.187500
2796,-113.281250
2797,-113.281250
2798,-113.281250
2799,-113.281250
2800,-113.281250
2801,-113.281250
2802,-113.281250
2803,-113.281250
2804,-113.281250
2805,-113.281250
2806,-113.281250
2807,-113.281250
2808,-113.281250
2809,-113.281250
2810,-113.281250
2811,-113.281250
2812,-113.281250
2813,-113.281250
2814,-113.281250
2815,-113.281250
2816,-113.281250
2817,-113.281250
2818,-113.281250
2819,-113.281250
2820,-113.281250
2821,-113.281250
2822,-113.281250
2823,-113.281250
2824,-113.281250
2825,-113.281250
2826,-113.281250
2827,-113.281250
2828,-113.281250
2829,-113.281250
2830,-113.281250
2831,-113.281250
2832,-109.375000
2833,-109.375000
2834,-109.375000
2835,-109.375000
2836,-109.375000
2837,-109.375000
2838,-109.375000
2839,-109.375000
2840,-109.375000
2841,-109.375000
2842,-109.375000
2843,-109.375000
2844,-109.375000
2845,-109.375000
2846,-109.375000
2847,-109.375000
2848,-109.375000
2849,-109.375000
2850,-109.375000
2851,-109.375000
2852,-105.468750
2853,-105.468750
2854,-105.468750
2855,-105.468750
2856,-105.468750
2857,-105.468750
2858,-105.468750
2859,-105.468750
2860,-105.468750
2861,-105.468750
2862,-105.468750
2863,-105.468750
2864,-105.468750
2865,-105.468750
2866,-105.468750
2867,-101.562500
2868,-101.562500
2869,-101.562500
2870,-101.562500
2871,-101.562500
2872,-101.562500
2873,-101.562500
2874,-101.562500
2875,-101.562500
2876,-101.562500
2877,-101.562500
2878,-101.562500
2879,-101.562500
2880,-101.562500
2881,-97.656250
2882,-97.656250
2883,-97.656250
2884,-97.656250
2885,-97.656250
2886,-97.656250
2887,-97.656250
2888,-97.656250
2889,-97.656250
2890,-97.656250
2891,-93.750000
2892,-93.750000
2893,-93.750000
2894,-93.750000
2895,-93.750000
2896,-93.750000
2897,-93.750000
2898,-93.750000
2899,-93.750000
2900,-93.750000
2901,-93.750000
2902,-89.843750
2903,-89.843750
2904,-89.843750
2905,-89.843750
2906,-89.843750
2907,-89.843750
2908,-89.843750
2909,-89.843750
2910,-85.937500
2911,-85.937500
2912,-85.937500
2913,-85.937500
2914,-85.937500
2915,-85.937500
2916,-85.937500
2917,-85.937500
2918,-82.031250
2919,-82.031250
2920,-82.031250
2921,-82.031250
2922,-82.031250
2923,-82.031250
2924,-82.031250
2925,-78.125000
2926,-78.125000
2927,-78.125000
2928,-78.125000
2929,-78.125000
2930,-78.125000
2931,-78.125000
2932,-78.125000
2933,-78.125000
2934,-74.218750
2935,-74.218750
2936,-74.218750
2937,-74.218750
2938,-74.218750
2939,-74.218750
2940,-70.312500
2941,-70.312500
2942,-70.312500
2943,-70.312500
2944,-70.312500
2945,-70.312500
2946,-70.312500
2947,-70.312500
2948,-66.406250
2949,-66.406250
2950,-66.406250
2951,-66.406250
2952,-66.406250
2953,-66.406250
2954,-62.500000
2955,-62.500000
2956,-62.500000
2957,-62.500000
2958,-62.500000
2959,-62.500000
2960,-62.500000
2961,-62.500000
2962,-58.593750
2963,-58.593750
2964,-58.593750
2965,-58.593750
2966,-58.593750
2967,-58.593750
2968,-54.687500
2969,-54.687500
2970,-54.687500
2971,-54.687500
2972,-54.687500
2973,-54.687500
2974,-50.781250
2975,-50.781250
2976,-50.781250
2977,-50.781250
2978,-50.781250
2979,-50.781250
2980,-50.781250
2981,-46.875000
2982,-46.875000
2983,-46.875000
2984,-46.875000
2985,-46.875000
2986,-46.875000
2987,-42.968750
2988,-42.968750
2989,-42.968750
2990,-42.968750
2991,-42.968750
2992,-42.968750
2993,-42.968750
2994,-39.062500
2995,-39.062500
2996,-39.062500
2997,-39.062500
2998,-39.062500
2999,-39.062500
3000,-39.062500
3001,-35.156250
3002,-35.156250
3003,-35.156250
3004,-35.156250
3005,-35.156250
3006,-35.156250
3007,-31.250000
3008,-31.250000
3009,-31.250000
3010,-31.250000
3011,-31.250000
3012,-31.250000
3013,-31.250000
3014,-27.343750
3015,-27.343750
3016,-27.343750
3017,-27.343750
3018,-23.437500
3019,-23.437500
3020,-23.437500
3021,-23.437500
3022,-23.437500
3023,-23.437500
3024,-23.437500
3025,-19.531250
3026,-19.531250
3027,-19.531250
3028,-19.531250
3029,-19.531250
3030,-19.531250
3031,-15.625000
3032,-15.625000
3033,-15.625000
3034,-15.625000
3035,-15.625000
3036,-15.625000
3037,-15.625000
3038,-11.718750
3039,-11.718750
3040,-11.718750
3041,-11.718750
3042,-11.718750
3043,-7.812500
3044,-7.812500
3045,-7.812500
3046,-7.812500
3047,-7.812500
3048,-7.812500
3049,-3.906250
3050,-3.906250
3051,-3.906250
3052,-3.906250
3053,-3.906250
3054,-3.906250
3055,0.000000
3056,0.000000
3057,0.000000
3058,0.000000
3059,0.000000
3060,0.000000
3061,0.000000
3062,3.906250
3063,3.906250
3064,3.906250
3065,3.906250
3066,3.906250
3067,3.906250
3068,7.812500
3069,7.812500
3070,7.812500
3071,7.812500
3072,7.812500
3073,7.812500
3074,11.718750
3075,7.812500
3076,11.718750
3077,11.718750
3078,11.718750
3079,11.718750
3080,15.625000
3081,15.625000
3082,15.625000
3083,15.625000
3084,15.625000
3085,15.625000
3086,15.625000
3087,15.625000
3088,19.531250
3089,19.531250
3090,19.531250
3091,19.531250
3092,19.531250
3093,19.531250
3094,23.437500
3095,23.437500
3096,23.437500
3097,23.437500
3098,23.437500
3099,23.437500
3100,23.437500
3101,23.437500
3102,27.343750
3103,27.343750
3104,27.343750
3105,27.343750
3106,27.343750
3107,27.343750
3108,27.343750
3109,31.250000
3110,31.250000
3111,31.250000
3112,31.250000
3113,31.250000
3114,31.250000
3115,31.250000
3116,35.156250
3117,35.156250
3118,35.156250
3119,35.156250
3120,35.156250
3121,35.156250
3122,35.156250
3123,35.156250
3124,35.156250
3125,39.062500
3126,39.062500
3127,39.062500
3128,39.062500
3129,39.062500
3130,39.062500
3131,39.062500
3132,39.062500
3133,42.968750
3134,42.968750
3135,42.968750
3136,42.968750
3137,42.968750
3138,42.968750
3139,46.875000
3140,46.875000
3141,46.875000
3142,46.875000
3143,46.875000
3144,46.875000
3145,46.875000
3146,50.781250
3147,46.875000
3148,50.781250
3149,50.781250
3150,50.781250
3151,50.781250
3152,50.781250
3153,50.781250
3154,50.781250
3155,50.781250
3156,50.781250
3157,54.687500
3158,50.781250
3159,54.687500
3160,54.687500
3161,54.687500
3162,54.687500
3163,54.687500
3164,54.687500
3165,54.687500
3166,54.687500
3167,58.593750
3168,58.593750
3169,58.593750
3170,58.593750
3171,58.593750
3172,58.593750
3173,58.593750
3174,58.593750
3175,58.593750
3176,58.593750
3177,62.500000
3178,62.500000
3179,62.500000
3180,62.500000
3181,62.500000
3182,62.500000
3183,62.500000
3184,62.500000
3185,62.500000
3186,62.500000
3187,66.406250
3188,66.406250
3189,66.406250
3190,66.406250
3191,66.406250
3192,66.406250
3193,66.406250
3194,66.406250
3195,66.406250
3196,66.406250
3197,66.406250
3198,66.406250
3199,70.312500
3200,70.312500
3201,70.312500
3202,70.312500
3203,70.312500
3204,70.312500
3205,70.312500
3206,70.312500
3207,70.312500
3208,70.312500
3209,70.312500
3210,70.312500
3211,70.312500
3212,74.218750
3213,70.312500
3214,70.312500
3215,74.218750
3216,74.218750
3217,74.218750
3218,74.218750
3219,74.218750
3220,74.218750
3221,74.218750
3222,74.218750
3223,74.218750
3224,78.125000
3225,78.125000
3226,78.125000
3227,74.218750
3228,78.125000
3229,78.125000
3230,78.125000
3231,74.218750
3232,78.125000
3233,78.125000
3234,78.125000
3235,78.125000
3236,78.125000
3237,78.125000
3238,78.125000
3239,78.125000
3240,78.125000
3241,78.125000
3242,78.125000
3243,78.125000
3244,78.125000
3245,78.125000
3246,78.125000
3247,78.125000
3248,78.125000
3249,78.125000
3250,78.125000
3251,78.125000
3252,78.125000
3253,78.125000
3254,82.031250
3255,78.125000
3256,78.125000
3257,78.125000
3258,78.125000
3259,82.031250
3260,82.031250
3261,82.031250
3262,82.031250
3263,82.031250
3264,82.031250
3265,82.031250
3266,82.031250
3267,82.031250
3268,82.031250
3269,82.031250
3270,82.031250
3271,82.031250
3272,82.031250
3273,82.031250
3274,82.031250
3275,82.031250
3276,82.031250
3277,82.031250
3278,82.031250
3279,82.031250
3280,82.031250
3281,82.031250
3282,82.031250
3283,82.031250
3284,82.031250
3285,82.031250
3286,82.031250
3287,82.031250
3288,82.031250
3289,82.031250
3290,82.031250
3291,82.031250
3292,82.031250
3293,82.031250
3294,82.031250
3295,82.031250
3296,82.031250
3297,82.031250
3298,82.031250
3299,82.031250
3300,82.031250
3301,82.031250
3302,82.031250
3303,82.031250
3304,82.031250
3305,82.031250
3306,82.031250
3307,82.031250
3308,82.031250
3309,82.031250
3310,82.031250
3311,82.031250
3312,82.031250
3313,82.031250
3314,82.031250
3315,82.031250
3316,82.031250
3317,82.031250
3318,82.031250
3319,82.031250
3320,82.031250
3321,82.031250
3322,82.031250
3323,78.125000
3324,78.125000
3325,82.031250
3326,78.125000
3327,82.031250
3328,82.031250
3329,82.031250
3330,82.031250
3331,78.125000
3332,78.125000
3333,78.125000
3334,78.125000
3335,78.125000
3336,78.125000
3337,78.125000
3338,78.125000
3339,78.125000
3340,78.125000
3341,78.125000
3342,78.125000
3343,78.125000
3344,78.125000
3345,78.125000
3346,78.125000
3347,78.125000
3348,78.125000
3349,78.125000
3350,78.125000
3351,78.125000
3352,78.125000
3353,78.125000
3354,74.218750
3355,74.218750
3356,74.218750
3357,74.218750
3358,74.218750
3359,74.218750
3360,74.218750
3361,74.218750
3362,74.218750
3363,74.218750
3364,74.218750
3365,74.218750
3366,74.218750
3367,74.218750
3368,74.218750
3369,74.218750
3370,70.312500
3371,70.312500
3372,70.312500
3373,70.312500
3374,70.312500
3375,70.312500
3376,70.312500
3377,70.312500
3378,70.312500
3379,70.312500
3380,70.312500
3381,70.312500
3382,70.312500
3383,70.312500
3384,70.312500
3385,66.406250
3386,66.406250
3387,66.406250
3388,66.406250
3389,66.406250
3390,66.406250
3391,66.406250
3392,66.406250
3393,66.406250
3394,66.406250
3395,66.406250
3396,66.406250
3397,62.500000
3398,62.500000
3399,62.500000
3400,62.500000
3401,62.500000
3402,62.500000
3403,62.500000
3404,62.500000
3405,62.500000
3406,62.500000
3407,58.593750
3408,58.593750
3409,58.593750
3410,58.593750
3411,58.593750
3412,58.593750
3413,58.593750
3414,58.593750
3415,58.593750
3416,58.593750
3417,54.687500
3418,54.687500
3419,54.687500
3420,54.687500
3421,54.687500
3422,54.687500
3423,54.687500
3424,54.687500
3425,54.687500
3426,50.781250
3427,50.781250
3428,50.781250
3429,54.687500
3430,50.781250
3431,50.781250
3432,50.781250
3433,50.781250
3434,50.781250
3435,46.875000
3436,46.875000
3437,46.875000
3438,46.875000
3439,46.875000
3440,46.875000
3441,46.875000
3442,46.875000
3443,46.875000
3444,42.968750
3445,42.968750
3446,42.968750
3447,42.968750
3448,42.968750
3449,42.968750
3450,42.968750
3451,42.968750
3452,42.968750
3453,39.062500
3454,39.062500
3455,39.062500
3456,39.062500
3457,39.062500
3458,39.062500
3459,39.062500
3460,39.062500
3461,39.062500
3462,35.156250
3463,35.156250
3464,35.156250
3465,35.156250
3466,35.156250
3467,35.156250
3468,35.156250
3469,31.250000
3470,31.250000
3471,31.250000
3472,31.250000
3473,31.250000
3474,31.250000
3475,31.250000
3476,27.343750
3477,27.343750
3478,27.343750
3479,27.343750
3480,27.343750
3481,27.343750
3482,27.343750
3483,23.437500
3484,23.437500
3485,23.437500
3486,23.437500
3487,23.437500
3488,23.437500
3489,19.531250
3490,19.531250
3491,19.531250
3492,19.531250
3493,19.531250
3494,19.531250
3495,19.531250
3496,15.625000
3497,15.625000
3498,15.625000
3499,15.625000
3500,15.625000
3501,15.625000
3502,15.625000
3503,15.625000
3504,11.718750
3505,11.718750
3506,11.718750
3507,11.718750
3508,11.718750
3509,7.812500
3510,7.812500
3511,7.812500
3512,7.812500
3513,7.812500
3514,7.812500
3515,7.812500
3516,3.906250
3517,3.906250
3518,3.906250
3519,3.906250
3520,3.906250
3521,3.906250
3522,0.000000
3523,0.000000
3524,0.000000
3525,0.000000
3526,0.000000
3527,0.000000
3528,-3.906250
3529,-3.906250
3530,-3.906250
3531,-3.906250
3532,-3.906250
3533,-3.906250
3534,-7.812500
3535,-7.812500
3536,-7.812500
3537,-7.812500
3538,-7.812500
3539,-7.812500
3540,-7.812500
3541,-11.718750
3542,-11.718750
3543,-11.718750
3544,-11.718750
3545,-11.718750
3546,-11.718750
3547,-15.625000
3548,-15.625000
3549,-15.625000
3550,-15.625000
3551,-15.625000
3552,-15.625000
3553,-19.531250
3554,-19.531250
3555,-19.531250
3556,-19.531250
3557,-19.531250
3558,-19.531250
3559,-19.531250
3560,-23.437500
3561,-23.437500
3562,-23.437500
3563,-23.437500
3564,-23.437500
3565,-27.343750
3566,-27.343750
3567,-27.343750
3568,-27.343750
3569,-27.343750
3570,-27.343750
3571,-27.343750
3572,-31.250000
3573,-31.250000
3574,-31.250000
3575,-31.250000
3576,-31.250000
3577,-31.250000
3578,-31.250000
3579,-35.156250
3580,-35.156250
3581,-35.156250
3582,-35.156250
3583,-35.156250
3584,-39.062500
3585,-39.062500
3586,-39.062500
3587,-39.062500
3588,-39.062500
3589,-39.062500
3590,-39.062500
3591,-42.968750
3592,-42.968750
3593,-42.968750
3594,-42.968750
3595,-46.875000
3596,-46.875000
3597,-46.875000
3598,-46.875000
3599,-46.875000
3600,-46.875000
3601,-46.875000
3602,-46.875000
3603,-50.781250
3604,-50.781250
3605,-50.781250
3606,-50.781250
3607,-50.781250
3608,-50.781250
3609,-54.687500
3610,-54.687500
3611,-54.687500
3612,-54.687500
3613,-54.687500
3614,-54.687500
3615,-58.593750
3616,-58.593750
3617,-58.593750
3618,-58.593750
3619,-58.593750
3620,-58.593750
3621,-58.593750
3622,-58.593750
3623,-62.500000
3624,-62.500000
3625,-62.500000
3626,-62.500000
3627,-62.500000
3628,-62.500000
3629,-66.406250
3630,-66.406250
3631,-66.406250
3632,-66.406250
3633,-66.406250
3634,-66.406250
3635,-66.406250
3636,-66.406250
3637,-70.312500
3638,-70.312500
3639,-70.312500
3640,-70.312500
3641,-70.312500
3642,-70.312500
3643,-74.218750
3644,-74.218750
3645,-74.218750
3646,-74.218750
3647,-74.218750
3648,-74.218750
3649,-74.218750
3650,-74.218750
3651,-78.125000
3652,-78.125000
3653,-78.125000
3654,-78.125000
3655,-78.125000
3656,-78.125000
3657,-78.125000
3658,-78.125000
3659,-82.031250
3660,-82.031250
3661,-82.031250
3662,-82.031250
3663,-82.031250
3664,-82.031250
3665,-82.031250
3666,-82.031250
3667,-85.937500
3668,-85.937500
3669,-85.937500
3670,-85.937500
3671,-85.937500
3672,-85.937500
3673,-85.937500
3674,-85.937500
3675,-85.937500
3676,-89.843750
3677,-89.843750
3678,-89.843750
3679,-89.843750
3680,-89.843750
3681,-89.843750
3682,-89.843750
3683,-89.843750
3684,-89.843750
3685,-93.750000
3686,-93.750000
3687,-93.750000
3688,-93.750000
3689,-93.750000
3690,-93.750000
3691,-93.750000
3692,-93.750000
3693,-93.750000
3694,-97.656250
3695,-97.656250
3696,-97.656250
3697,-97.656250
3698,-97.656250
3699,-97.656250
3700,-97.656250
3701,-97.656250
3702,-97.656250
3703,-97.656250
3704,-97.656250
3705,-101.562500
3706,-101.562500
3707,-101.562500
3708,-101.562500
3709,-101.562500
3710,-101.562500
3711,-101.562500
3712,-101.562500
3713,-101.562500
3714,-101.562500
3715,-101.562500
3716,-105.468750
3717,-105.468750
3718,-105.468750
3719,-105.468750
3720,-105.468750
3721,-105.468750
3722,-105.468750
3723,-105.468750
3724,-105.468750
3725,-105.468750
3726,-105.468750
3727,-105.468750
3728,-105.468750
3729,-105.468750
3730,-109.375000
3731,-109.375000
3732,-109.375000
3733,-109.375000
3734,-109.375000
3735,-109.375000
3736,-109.375000
3737,-109.375000
3738,-109.375000
3739,-109.375000
3740,-109.375000
3741,-109.375000
3742,-109.375000
3743,-109.375000
3744,-109.375000
3745,-109.375000
3746,-109.375000
3747,-109.375000
3748,-109.375000
3749,-113.281250
3750,-109.375000
3751,-113.281250
3752,-113.281250
3753,-113.281250
3754,-113.281250
3755,-113.281250
3756,-113.281250
3757,-113.281250
3758,-113.281250
3759,-113.281250
3760,-113.281250
3761,-113.281250
3762,-113.281250
3763,-113.281250
3764,-113.281250
3765,-113.281250
3766,-113.281250
3767,-113.281250
3768,-113.281250
3769,-113.281250
3770,-113.281250
3771,-113.281250
3772,-113.281250
3773,-113.281250
3774,-113.281250
3775,-113.281250
3776,-113.281250
3777,-113.281250
3778,-113.281250
3779,-113.281250
3780,-113.281250
3781,-113.281250
3782,-113.281250
3783,-113.281250
3784,-113.281250
3785,-113.281250
3786,-113.281250
3787,-113.281250
3788,-113.281250
3789,-113.281250
3790,-113.281250
3791,-113.281250
3792,-113.281250
3793,-113.281250
3794,-113.281250
3795,-113.281250
3796,-113.281250
3797,-113.281250
3798,-113.281250
3799,-113.281250
3800,-113.281250
3801,-113.281250
3802,-113.281250
3803,-113.281250
3804,-113.281250
3805,-113.281250
3806,-113.281250
3807,-113.281250
3808,-113.281250
3809,-113.281250
3810,-113.281250
3811,-113.281250
3812,-113.281250
3813,-113.281250
3814,-113.281250
3815,-113.281250
3816,-113.281250
3817,-113.281250
3818,-113.281250
3819,-113.281250
3820,-113.281250
3821,-113.281250
3822,-113.281250
3823,-113.281250
3824,-109.375000
3825,-113.281250
3826,-109.375000
3827,-109.375000
3828,-109.375000
3829,-109.375000
3830,-109.375000
3831,-109.375000
3832,-109.375000
3833,-109.375000
3834,-109.375000
3835,-109.375000
3836,-109.375000
3837,-109.375000
3838,-109.375000
3839,-109.375000
3840,-109.375000
3841,-109.375000
3842,-109.375000
3843,-105.468750
3844,-105.468750
3845,-105.468750
3846,-105.468750
3847,-105.468750
3848,-105.468750
3849,-105.468750
3850,-105.468750
3851,-105.468750
3852,-105.468750
3853,-105.468750
3854,-105.468750
3855,-105.468750
3856,-101.562500
3857,-101.562500
3858,-101.562500
3859,-101.562500
3860,-101.562500
3861,-101.562500
3862,-101.562500
3863,-101.562500
3864,-101.562500
3865,-101.562500
3866,-101.562500
3867,-101.562500
3868,-101.562500
3869,-101.562500
3870,-101.562500
3871,-101.562500
3872,-97.656250
3873,-97.656250
3874,-97.656250
3875,-97.656250
3876,-97.656250
3877,-97.656250
3878,-93.750000
3879,-93.750000
3880,-97.656250
3881,-97.656250
3882,-93.750000
3883,-93.750000
3884,-93.750000
3885,-93.750000
3886,-93.750000
3887,-93.750000
3888,-93.750000
3889,-93.750000
3890,-89.843750
3891,-93.750000
3892,-89.843750
3893,-89.843750
3894,-89.843750
3895,-89.843750
3896,-89.843750
3897,-89.843750
3898,-89.843750
3899,-85.937500
3900,-85.937500
3901,-85.937500
3902,-85.937500
3903,-85.937500
3904,-85.937500
3905,-85.937500
3906,-85.937500
3907,-85.937500
3908,-82.031250
3909,-82.031250
3910,-82.031250
3911,-82.031250
3912,-82.031250
3913,-82.031250
3914,-82.031250
3915,-82.031250
3916,-78.125000
3917,-78.125000
3918,-78.125000
3919,-78.125000
3920,-78.125000
3921,-78.125000
3922,-78.125000
3923,-78.125000
3924,-74.218750
3925,-74.218750
3926,-74.218750
3927,-74.218750
3928,-74.218750
3929,-74.218750
3930,-70.312500
3931,-70.312500
3932,-70.312500
3933,-70.312500
3934,-70.312500
3935,-70.312500
3936,-70.312500
3937,-70.312500
3938,-66.406250
3939,-66.406250
3940,-66.406250
3941,-66.406250
3942,-66.406250
3943,-66.406250
3944,-66.406250
3945,-62.500000
3946,-62.500000
3947,-62.500000
3948,-62.500000
3949,-62.500000
3950,-62.500000
3951,-62.500000
3952,-58.593750
3953,-58.593750
3954,-58.593750
3955,-58.593750
3956,-58.593750
3957,-58.593750
3958,-58.593750
3959,-54.687500
3960,-54.687500
3961,-54.687500
3962,-54.687500
3963,-54.687500
3964,-54.687500
3965,-50.781250
3966,-50.781250
3967,-50.781250
3968,-50.781250
3969,-50.781250
3970,-50.781250
3971,-46.875000
3972,-46.875000
3973,-46.875000
3974,-46.875000
3975,-46.875000
3976,-46.875000
3977,-46.875000
3978,-46.875000
3979,-42.968750
3980,-42.968750
3981,-42.968750
3982,-42.968750
3983,-39.062500
3984,-39.062500
3985,-39.062500
3986,-39.062500
3987,-39.062500
3988,-39.062500
3989,-39.062500
3990,-39.062500
3991,-35.156250
3992,-35.156250
3993,-35.156250
3994,-35.156250
3995,-35.156250
3996,-35.156250
3997,-31.250000
3998,-31.250000
3999,-31.250000
4000,-31.250000
4001,-31.250000
4002,-31.250000
4003,-27.343750
4004,-27.343750
4005,-27.343750
4006,-27.343750
4007,-27.343750
4008,-27.343750
4009,-23.437500
4010,-23.437500
4011,-23.437500
4012,-23.437500
4013,-23.437500
4014,-19.531250
4015,-19.531250
4016,-19.531250
4017,-19.531250
4018,-19.531250
4019,-19.531250
4020,-19.531250
4021,-19.531250
4022,-15.625000
4023,-15.625000
4024,-15.625000
4025,-15.625000
4026,-15.625000
4027,-11.718750
4028,-11.718750
4029,-11.718750
4030,-11.718750
4031,-11.718750
4032,-11.718750
4033,-11.718750
4034,-7.812500
4035,-7.812500
4036,-7.812500
4037,-7.812500
4038,-7.812500
4039,-7.812500
4040,-7.812500
4041,-3.906250
4042,-3.906250
4043,-3.906250
4044,-3.906250
4045,-3.906250
4046,-3.906250
4047,0.000000
4048,0.000000
4049,0.000000
4050,0.000000
4051,0.000000
4052,0.000000
4053,3.906250
4054,3.906250
4055,3.906250
4056,3.906250
4057,3.906250
4058,3.906250
4059,7.812500
4060,7.812500
4061,7.812500
4062,7.812500
4063,7.812500
4064,7.812500
4065,7.812500
4066,11.718750
4067,11.718750
4068,11.718750
4069,11.718750
4070,11.718750
4071,11.718750
4072,11.718750
4073,15.625000
4074,15.625000
4075,15.625000
4076,15.625000
4077,15.625000
4078,15.625000
4079,19.531250
4080,19.531250
4081,19.531250
4082,19.531250
4083,19.531250
4084,19.531250
4085,19.531250
4086,23.437500
4087,23.437500
4088,23.437500
4089,23.437500
4090,23.437500
4091,23.437500
4092,27.343750
4093,27.343750
4094,27.343750
4095,27.343750
4096,27.343750
4097,27.343750
4098,27.343750
4099,27.343750
4100,31.250000
4101,31.250000
4102,31.250000
4103,31.250000
4104,31.250000
4105,31.250000
4106,31.250000
4107,35.156250
4108,35.156250
4109,35.156250
4110,35.156250
4111,35.156250
4112,35.156250
4113,35.156250
4114,35.156250
4115,39.062500
4116,39.062500
4117,39.062500
4118,39.062500
4119,39.062500
4120,39.062500
4121,39.062500
4122,42.968750
4123,42.968750
4124,42.968750
4125,42.968750
4126,42.968750
4127,42.968750
4128,42.968750
4129,42.968750
4130,42.968750
4131,42.968750
4132,46.875000
4133,46.875000
4134,46.875000
4135,46.875000
4136,46.875000
4137,46.875000
4138,46.875000
4139,46.875000
4140,50.781250
4141,50.781250
4142,50.781250
4143,50.781250
4144,50.781250
4145,50.781250
4146,50.781250
4147,50.781250
4148,50.781250
4149,50.781250
4150,54.687500
4151,54.687500
4152,54.687500
4153,54.687500
4154,54.687500
4155,54.687500
4156,54.687500
4157,54.687500
4158,58.593750
4159,58.593750
4160,58.593750
4161,58.593750
4162,58.593750
4163,58.593750
4164,58.593750
4165,58.593750
4166,62.500000
4167,58.593750
4168,62.500000
4169,62.500000
4170,58.593750
4171,62.500000
4172,62.500000
4173,62.500000
4174,62.500000
4175,62.500000
4176,62.500000
4177,62.500000
4178,62.500000
4179,62.500000
4180,62.500000
4181,66.406250
4182,66.406250
4183,66.406250
4184,66.406250
4185,66.406250
4186,66.406250
4187,66.406250
4188,66.406250
4189,66.406250
4190,66.406250
4191,66.406250
4192,70.312500
4193,70.312500
4194,70.312500
4195,70.312500
4196,70.312500
4197,70.312500
4198,70.312500
4199,70.312500
4200,70.312500
4201,70.312500
4202,70.312500
4203,70.312500
4204,70.312500
4205,74.218750
4206,74.218750
4207,74.218750
4208,74.218750
4209,74.218750
4210,74.218750
4211,74.218750
4212,74.218750
4213,74.218750
4214,74.218750
4215,74.218750
4216,74.218750
4217,74.218750
4218,74.218750
4219,74.218750
4220,74.218750
4221,74.218750
4222,74.218750
4223,74.218750
4224,78.125000
4225,78.125000
4226,78.125000
4227,78.125000
4228,78.125000
4229,78.125000
4230,78.125000
4231,78.125000
4232,78.125000
4233,78.125000
4234,78.125000
4235,78.125000
4236,78.125000
4237,78.125000
4238,78.125000
4239,78.125000
4240,78.125000
4241,78.125000
4242,78.125000
4243,78.125000
4244,78.125000
4245,78.125000
4246,78.125000
4247,82.031250
4248,82.031250
4249,82.031250
4250,82.031250
4251,78.125000
4252,82.031250
4253,78.125000
4254,82.031250
4255,82.031250
4256,82.031250
4257,82.031250
4258,82.031250
4259,82.031250
4260,82.031250
4261,82.031250
4262,82.031250
4263,82.031250
4264,82.031250
4265,82.031250
4266,82.031250
4267,82.031250
4268,82.031250
4269,82.031250
4270,82.031250
4271,82.031250
4272,82.031250
4273,82.031250
4274,82.031250
4275,82.031250
4276,82.031250
4277,82.031250
4278,82.031250
4279,82.031250
4280,82.031250
4281,82.031250
4282,82.031250
4283,82.031250
4284,82.031250
4285,82.031250
4286,82.031250
4287,82.031250
4288,82.031250
4289,82.031250
4290,82.031250
4291,82.031250
4292,82.031250
4293,82.031250
4294,82.031250
4295,82.031250
4296,82.031250
4297,82.031250
4298,82.031250
4299,82.031250
4300,82.031250
4301,82.031250
4302,82.031250
4303,82.031250
4304,82.031250
4305,82.031250
4306,82.031250
4307,82.031250
4308,82.031250
4309,82.031250
4310,82.031250
4311,82.031250
4312,82.031250
4313,82.031250
4314,82.031250
4315,78.125000
4316,78.125000
4317,78.125000
4318,78.125000
4319,78.125000
4320,78.125000
4321,78.125000
4322,78.125000
4323,78.125000
4324,78.125000
4325,78.125000
4326,78.125000
4327,78.125000
4328,78.125000
4329,78.125000
4330,78.125000
4331,78.125000
4332,78.125000
4333,78.125000
4334,78.125000
4335,78.125000
4336,78.125000
4337,78.125000
4338,78.125000
4339,74.218750
4340,74.218750
4341,74.218750
4342,78.125000
4343,74.218750
4344,74.218750
4345,74.218750
4346,74.218750
4347,74.218750
4348,74.218750
4349,74.218750
4350,74.218750
4351,74.218750
4352,74.218750
4353,74.218750
4354,74.218750
4355,74.218750
4356,74.218750
4357,74.218750
4358,74.218750
4359,70.312500
4360,70.312500
4361,70.312500
4362,70.312500
4363,70.312500
4364,70.312500
4365,70.312500
4366,70.312500
4367,70.312500
4368,70.312500
4369,70.312500
4370,70.312500
4371,70.312500
4372,70.312500
4373,66.406250
4374,66.406250
4375,66.406250
4376,66.406250
4377,66.406250
4378,66.406250
4379,66.406250
4380,66.406250
4381,66.406250
4382,66.406250
4383,66.406250
4384,66.406250
4385,62.500000
4386,62.500000
4387,62.500000
4388,62.500000
4389,62.500000
4390,62.500000
4391,62.500000
4392,62.500000
4393,62.500000
4394,62.500000
4395,62.500000
4396,58.593750
4397,58.593750
4398,58.593750
4399,58.593750
4400,58.593750
4401,58.593750
4402,58.593750
4403,58.593750
4404,58.593750
4405,58.593750
4406,54.687500
4407,54.687500
4408,54.687500
4409,54.687500
4410,54.687500
4411,54.687500
4412,54.687500
4413,54.687500
4414,54.687500
4415,50.781250
4416,50.781250
4417,50.781250
4418,54.687500
4419,50.781250
4420,50.781250
4421,50.781250
4422,50.781250
4423,50.781250
4424,50.781250
4425,46.875000
4426,46.875000
4427,46.875000
4428,46.875000
4429,46.875000
4430,46.875000
4431,46.875000
4432,46.875000
4433,46.875000
4434,42.968750
4435,42.968750
4436,42.968750
4437,42.968750
4438,42.968750
4439,42.968750
4440,42.968750
4441,42.968750
4442,39.062500
4443,39.062500
4444,39.062500
4445,39.062500
4446,39.062500
4447,39.062500
4448,35.156250
4449,35.156250
4450,39.062500
4451,35.156250
4452,35.156250
4453,35.156250
4454,35.156250
4455,35.156250
4456,35.156250
4457,31.250000
4458,31.250000
4459,31.250000
4460,31.250000
4461,31.250000
4462,31.250000
4463,27.343750
4464,27.343750
4465,27.343750
4466,27.343750
4467,27.343750
4468,27.343750
4469,27.343750
4470,27.343750
4471,23.437500
4472,23.437500
4473,23.437500
4474,23.437500
4475,23.437500
4476,23.437500
4477,19.531250
4478,19.531250
4479,19.531250
4480,19.531250
4481,19.531250
4482,19.531250
4483,19.531250
4484,19.531250
4485,15.625000
4486,15.625000
4487,15.625000
4488,15.625000
4489,15.625000
4490,15.625000
4491,11.718750
4492,11.718750
4493,11.718750
4494,11.718750
4495,11.718750
4496,11.718750
4497,11.718750
4498,11.718750
4499,7.812500
4500,7.812500
4501,7.812500
4502,7.812500
4503,7.812500
4504,7.812500
4505,3.906250
4506,3.906250
4507,3.906250
4508,3.906250
4509,3.906250
4510,3.906250
4511,0.000000
4512,0.000000
4513,0.000000
4514,0.000000
4515,0.000000
4516,-3.906250
4517,-3.906250
4518,-3.906250
4519,-3.906250
4520,-3.906250
4521,-3.906250
4522,-3.906250
4523,-7.812500
4524,-7.812500
4525,-7.812500
4526,-7.812500
4527,-7.812500
4528,-7.812500
4529,-11.718750
4530,-11.718750
4531,-11.718750
4532,-11.718750
4533,-11.718750
4534,-11.718750
4535,-11.718750
4536,-15.625000
4537,-15.625000
4538,-15.625000
4539,-15.625000
4540,-15.625000
4541,-19.531250
4542,-19.531250
4543,-19.531250
4544,-19.531250
4545,-19.531250
4546,-19.531250
4547,-23.437500
4548,-23.437500
4549,-23.437500
4550,-23.437500
4551,-23.437500
4552,-23.437500
4553,-23.437500
4554,-27.343750
4555,-27.343750
4556,-27.343750
4557,-27.343750
4558,-27.343750
4559,-27.343750
4560,-31.250000
4561,-31.250000
4562,-31.250000
4563,-31.250000
4564,-31.250000
4565,-31.250000
4566,-35.156250
4567,-35.156250
4568,-35.156250
4569,-35.156250
4570,-35.156250
4571,-35.156250
4572,-39.062500
4573,-39.062500
4574,-39.062500
4575,-39.062500
4576,-39.062500
4577,-39.062500
4578,-39.062500
4579,-42.968750
4580,-42.968750
4581,-42.968750
4582,-42.968750
4583,-42.968750
4584,-42.968750
4585,-46.875000
4586,-46.875000
4587,-46.875000
4588,-46.875000
4589,-46.875000
4590,-46.875000
4591,-46.875000
4592,-50.781250
4593,-50.781250
4594,-50.781250
4595,-50.781250
4596,-50.781250
4597,-54.687500
4598,-54.687500
4599,-54.687500
4600,-54.687500
4601,-54.687500
4602,-54.687500
4603,-54.687500
4604,-54.687500
4605,-58.593750
4606,-58.593750
4607,-58.593750
4608,-58.593750
4609,-58.593750
4610,-58.593750
4611,-62.500000
4612,-62.500000
4613,-62.500000
4614,-62.500000
4615,-62.500000
4616,-62.500000
4617,-62.500000
4618,-66.406250
4619,-66.406250
4620,-66.406250
4621,-66.406250
4622,-66.406250
4623,-66.406250
4624,-70.312500
4625,-70.312500
4626,-70.312500
4627,-70.312500
4628,-70.312500
4629,-70.312500
4630,-70.312500
4631,-74.218750
4632,-74.218750
4633,-74.218750
4634,-74.218750
4635,-74.218750
4636,-74.218750
4637,-74.218750
4638,-74.218750
4639,-78.125000
4640,-78.125000
4641,-78.125000
4642,-78.125000
4643,-78.125000
4644,-78.125000
4645,-82.031250
4646,-78.125000
4647,-82.031250
4648,-82.031250
4649,-82.031250
4650,-82.031250
4651,-82.031250
4652,-82.031250
4653,-85.937500
4654,-85.937500
4655,-85.937500
4656,-85.937500
4657,-85.937500
4658,-85.937500
4659,-85.937500
4660,-85.937500
4661,-85.937500
4662,-89.843750
4663,-89.843750
4664,-89.843750
4665,-89.843750
4666,-89.843750
4667,-89.843750
4668,-89.843750
4669,-89.843750
4670,-93.750000
4671,-93.750000
4672,-93.750000
4673,-93.750000
4674,-93.750000
4675,-93.750000
4676,-93.750000
4677,-93.750000
4678,-93.750000
4679,-93.750000
4680,-93.750000
4681,-97.656250
4682,-97.656250
4683,-97.656250
4684,-97.656250
4685,-97.656250
4686,-97.656250
4687,-97.656250
4688,-97.656250
4689,-97.656250
4690,-101.562500
4691,-101.562500
4692,-101.562500
4693,-101.562500
4694,-101.562500
4695,-101.562500
4696,-101.562500
4697,-101.562500
4698,-101.562500
4699,-101.562500
4700,-101.562500
4701,-101.562500
4702,-105.468750
4703,-105.468750
4704,-105.468750
4705,-105.468750
4706,-105.468750
4707,-105.468750
4708,-105.468750
4709,-105.468750
4710,-105.468750
4711,-105.468750
4712,-105.468750
4713,-109.375000
4714,-109.375000
4715,-105.468750
4716,-109.375000
4717,-105.468750
4718,-109.375000
4719,-109.375000
4720,-109.375000
4721,-109.375000
4722,-109.375000
4723,-109.375000
4724,-109.375000
4725,-109.375000
4726,-109.375000
4727,-109.375000
4728,-109.375000
4729,-109.375000
4730,-109.375000
4731,-113.281250
4732,-113.281250
4733,-113.281250
4734,-113.281250
4735,-113.281250
4736,-109.375000
4737,-113.281250
4738,-113.281250
4739,-113.281250
4740,-113.281250
4741,-113.281250
4742,-113.281250
4743,-113.281250
4744,-117.187500
4745,-113.281250
4746,-113.281250
4747,-113.281250
4748,-113.281250
4749,-113.281250
4750,-113.281250
4751,-113.281250
4752,-113.281250
4753,-113.281250
4754,-113.281250
4755,-113.281250
4756,-113.281250
4757,-113.281250
4758,-113.281250
4759,-113.281250
4760,-117.187500
4761,-113.281250
4762,-113.281250
4763,-117.187500
4764,-113.281250
4765,-117.187500
4766,-113.281250
4767,-117.187500
4768,-113.281250
4769,-113.281250
4770,-113.281250
4771,-113.281250
4772,-117.187500
4773,-117.187500
4774,-113.281250
4775,-117.187500
4776,-117.187500
4777,-113.281250
4778,-113.281250
4779,-113.281250
4780,-117.187500
4781,-117.187500
4782,-117.187500
4783,-113.281250
4784,-117.187500
4785,-113.281250
4786,-117.187500
4787,-117.187500
4788,-117.187500
4789,-113.281250
4790,-113.281250
4791,-113.281250
4792,-113.281250
4793,-113.281250
4794,-117.187500
4795,-117.187500
4796,-117.187500
4797,-113.281250
4798,-117.187500
4799,-113.281250
4800,-113.281250
4801,-113.281250
4802,-113.281250
4803,-113.281250
4804,-113.281250
4805,-113.281250
4806,-113.281250
4807,-113.281250
4808,-113.281250
4809,-113.281250
4810,-113.281250
4811,-113.281250
4812,-113.281250
4813,-113.281250
4814,-113.281250
4815,-113.281250
4816,-113.281250
4817,-113.281250
4818,-113.281250
4819,-113.281250
4820,-109.375000
4821,-113.281250
4822,-109.375000
4823,-113.281250
4824,-109.375000
4825,-113.281250
4826,-109.375000
4827,-109.375000
4828,-109.375000
4829,-109.375000
4830,-109.375000
4831,-109.375000
4832,-109.375000
4833,-109.375000
4834,-109.375000
4835,-109.375000
4836,-109.375000
4837,-109.375000
4838,-109.375000
4839,-109.375000
4840,-105.468750
4841,-105.468750
4842,-105.468750
4843,-105.468750
4844,-105.468750
4845,-105.468750
4846,-105.468750
4847,-105.468750
4848,-105.468750
4849,-105.468750
4850,-105.468750
4851,-105.468750
4852,-101.562500
4853,-101.562500
4854,-101.562500
4855,-101.562500
4856,-101.562500
4857,-101.562500
4858,-101.562500
4859,-101.562500
4860,-101.562500
4861,-97.656250
4862,-97.656250
4863,-97.656250
4864,-97.656250
4865,-97.656250
4866,-97.656250
4867,-97.656250
4868,-97.656250
4869,-97.656250
4870,-97.656250
4871,-97.656250
4872,-97.656250
4873,-97.656250
4874,-93.750000
4875,-93.750000
4876,-93.750000
4877,-93.750000
4878,-93.750000
4879,-93.750000
4880,-93.750000
4881,-93.750000
4882,-93.750000
4883,-89.843750
4884,-89.843750
4885,-89.843750
4886,-89.843750
4887,-89.843750
4888,-89.843750
4889,-89.843750
4890,-85.937500
4891,-89.843750
4892,-85.937500
4893,-85.937500
4894,-85.937500
4895,-85.937500
4896,-85.937500
4897,-85.937500
4898,-85.937500
4899,-85.937500
4900,-85.937500
4901,-82.031250
4902,-82.031250
4903,-82.031250
4904,-82.031250
4905,-82.031250
4906,-82.031250
4907,-82.031250
4908,-82.031250
4909,-78.125000
4910,-78.125000
4911,-78.125000
4912,-78.125000
4913,-78.125000
4914,-78.125000
4915,-78.125000
4916,-74.218750
4917,-74.218750
4918,-74.218750
4919,-74.218750
4920,-74.218750
4921,-74.218750
4922,-74.218750
4923,-74.218750
4924,-70.312500
4925,-70.312500
4926,-70.312500
4927,-70.312500
4928,-70.312500
4929,-70.312500
4930,-70.312500
4931,-66.406250
4932,-66.406250
4933,-66.406250
4934,-66.406250
4935,-66.406250
4936,-66.406250
4937,-66.406250
4938,-62.500000
4939,-62.500000
4940,-62.500000
4941,-62.500000
4942,-62.500000
4943,-62.500000
4944,-58.593750
4945,-58.593750
4946,-58.593750
4947,-58.593750
4948,-58.593750
4949,-58.593750
4950,-58.593750
4951,-58.593750
4952,-54.687500
4953,-54.687500
4954,-54.687500
4955,-54.687500
4956,-50.781250
4957,-50.781250
4958,-50.781250
4959,-50.781250
4960,-50.781250
4961,-50.781250
4962,-50.781250
4963,-46.875000
4964,-46.875000
4965,-46.875000
4966,-46.875000
4967,-46.875000
4968,-46.875000
4969,-46.875000
4970,-42.968750
4971,-42.968750
4972,-42.968750
4973,-42.968750
4974,-42.968750
4975,-42.968750
4976,-42.968750
4977,-39.062500
4978,-39.062500
4979,-39.062500
4980,-39.062500
4981,-39.062500
4982,-35.156250
4983,-35.156250
4984,-35.156250
4985,-35.156250
4986,-35.156250
4987,-35.156250
4988,-35.156250
4989,-31.250000
4990,-31.250000
4991,-31.250000
4992,-31.250000
4993,-27.343750
4994,-27.343750
4995,-27.343750
4996,-27.343750
4997,-27.343750
4998,-27.343750
4999,-27.343750
5000,-27.343750
5001,-23.437500
5002,-23.437500
5003,-23.437500
5004,-23.437500
5005,-23.437500
5006,-23.437500
5007,-19.531250
5008,-19.531250
5009,-19.531250
5010,-19.531250
5011,-19.531250
5012,-15.625000
5013,-15.625000
5014,-15.625000
5015,-15.625000
5016,-15.625000
5017,-15.625000
5018,-15.625000
5019,-11.718750
5020,-11.718750
5021,-11.718750
5022,-11.718750
5023,-11.718750
5024,-11.718750
5025,-7.812500
5026,-7.812500
5027,-7.812500
5028,-7.812500
5029,-7.812500
5030,-7.812500
5031,-7.812500
5032,-3.906250
5033,-3.906250
5034,-3.906250
5035,-3.906250
5036,-3.906250
5037,-3.906250
5038,0.000000
5039,-3.906250
5040,0.000000
5041,0.000000
5042,0.000000
5043,0.000000
5044,3.906250
5045,3.906250
5046,3.906250
5047,3.906250
5048,3.906250
5049,3.906250
5050,3.906250
5051,7.812500
5052,7.812500
5053,7.812500
5054,7.812500
5055,7.812500
5056,7.812500
5057,11.718750
5058,11.718750
5059,11.718750
5060,11.718750
5061,11.718750
5062,11.718750
5063,11.718750
5064,15.625000
5065,15.625000
5066,15.625000
5067,15.625000
5068,15.625000
5069,15.625000
5070,19.531250
5071,19.531250
5072,19.531250
5073,19.531250
5074,19.531250
5075,19.531250
5076,19.531250
5077,23.437500
5078,23.437500
5079,23.437500
5080,23.437500
5081,23.437500
5082,23.437500
5083,23.437500
5084,27.343750
5085,27.343750
5086,27.343750
5087,27.343750
5088,27.343750
5089,27.343750
5090,27.343750
5091,27.343750
5092,31.250000
5093,31.250000
5094,31.250000
5095,31.250000
5096,31.250000
5097,31.250000
5098,31.250000
5099,35.156250
5100,35.156250
5101,35.156250
5102,35.156250
5103,35.156250
5104,35.156250
5105,35.156250
5106,35.156250
5107,35.156250
5108,39.062500
5109,39.062500
5110,35.156250
5111,39.062500
5112,39.062500
5113,39.062500
5114,42.968750
5115,42.968750
5116,39.062500
5117,42.968750
5118,42.968750
5119,42.968750
5120,42.968750
5121,42.968750
5122,46.875000
5123,46.875000
5124,50.781250
5125,46.875000
5126,46.875000
5127,46.875000
5128,46.875000
5129,46.875000
5130,46.875000
5131,50.781250
5132,50.781250
5133,50.781250
5134,50.781250
5135,50.781250
5136,50.781250
5137,50.781250
5138,54.687500
5139,50.781250
5140,54.687500
5141,50.781250
5142,54.687500
5143,54.687500
5144,54.687500
5145,54.687500
5146,54.687500
5147,54.687500
5148,54.687500
5149,54.687500
5150,58.593750
5151,58.593750
5152,58.593750
5153,58.593750
5154,58.593750
5155,58.593750
5156,58.593750
5157,58.593750
5158,58.593750
5159,58.593750
5160,62.500000
5161,62.500000
5162,62.500000
5163,62.500000
5164,62.500000
5165,62.500000
5166,62.500000
5167,62.500000
5168,62.500000
5169,62.500000
5170,66.406250
5171,66.406250
5172,66.406250
5173,66.406250
5174,66.406250
5175,66.406250
5176,66.406250
5177,66.406250
5178,66.406250
5179,66.406250
5180,66.406250
5181,66.406250
5182,66.406250
5183,66.406250
5184,66.406250
5185,70.312500
5186,70.312500
5187,70.312500
5188,70.312500
5189,70.312500
5190,70.312500
5191,70.312500
5192,70.312500
5193,70.312500
5194,70.312500
5195,70.312500
5196,70.312500
5197,74.218750
5198,70.312500
5199,74.218750
5200,74.218750
5201,74.218750
5202,74.218750
5203,70.312500
5204,74.218750
5205,74.218750
5206,74.218750
5207,74.218750
5208,74.218750
5209,74.218750
5210,74.218750
5211,74.218750
5212,74.218750
5213,74.218750
5214,74.218750
5215,74.218750
5216,74.218750
5217,74.218750
5218,74.218750
5219,78.125000
5220,78.125000
5221,78.125000
5222,78.125000
5223,78.125000
5224,78.125000
5225,78.125000
5226,78.125000
5227,78.125000
5228,78.125000
5229,78.125000
5230,78.125000
5231,78.125000
5232,78.125000
5233,78.125000
5234,78.125000
5235,78.125000
5236,78.125000
5237,78.125000
5238,78.125000
5239,78.125000
5240,78.125000
5241,78.125000
5242,78.125000
5243,78.125000
5244,78.125000
5245,78.125000
5246,82.031250
5247,78.125000
5248,82.031250
5249,82.031250
5250,78.125000
5251,82.031250
5252,82.031250
5253,78.125000
5254,82.031250
5255,82.031250
5256,82.031250
5257,82.031250
5258,82.031250
5259,82.031250
5260,82.031250
5261,82.031250
5262,82.031250
5263,82.031250
5264,82.031250
5265,82.031250
5266,82.031250
5267,82.031250
5268,82.031250
5269,82.031250
5270,82.031250
5271,82.031250
5272,82.031250
5273,82.031250
5274,82.031250
5275,82.031250
5276,82.031250
5277,82.031250
5278,82.031250
5279,82.031250
5280,82.031250
5281,82.031250
5282,82.031250
5283,82.031250
5284,82.031250
5285,82.031250
5286,82.031250
5287,82.031250
5288,82.031250
5289,82.031250
5290,82.031250
5291,78.125000
5292,78.125000
5293,78.125000
5294,82.031250
5295,82.031250
5296,82.031250
5297,82.031250
5298,82.031250
5299,78.125000
5300,78.125000
5301,78.125000
5302,78.125000
5303,78.125000
5304,78.125000
5305,78.125000
5306,78.125000
5307,78.125000
5308,78.125000
5309,78.125000
5310,78.125000
5311,78.125000
5312,78.125000
5313,78.125000
5314,78.125000
5315,78.125000
5316,78.125000
5317,78.125000
5318,78.125000
5319,78.125000
5320,78.125000
5321,78.125000
5322,78.125000
5323,74.218750
5324,78.125000
5325,78.125000
5326,74.218750
5327,74.218750
5328,74.218750
5329,74.218750
5330,74.218750
5331,74.218750
5332,74.218750
5333,74.218750
5334,74.218750
5335,74.218750
5336,74.218750
5337,74.218750
5338,74.218750
5339,74.218750
5340,74.218750
5341,74.218750
5342,74.218750
5343,74.218750
5344,70.312500
5345,70.312500
5346,74.218750
5347,70.312500
5348,70.312500
5349,70.312500
5350,70.312500
5351,70.312500
5352,70.312500
5353,70.312500
5354,70.312500
5355,70.312500
5356,70.312500
5357,70.312500
5358,70.312500
5359,66.406250
5360,70.312500
5361,66.406250
5362,66.406250
5363,66.406250
5364,66.406250
5365,66.406250
5366,66.406250
5367,66.406250
5368,66.406250
5369,66.406250
5370,66.406250
5371,62.500000
5372,62.500000
5373,62.500000
5374,62.500000
5375,62.500000
5376,62.500000
5377,62.500000
5378,62.500000
5379,62.500000
5380,62.500000
5381,62.500000
5382,58.593750
5383,58.593750
5384,58.593750
5385,58.593750
5386,58.593750
5387,58.593750
5388,58.593750
5389,58.593750
5390,58.593750
5391,58.593750
5392,58.593750
5393,54.687500
5394,58.593750
5395,54.687500
5396,54.687500
5397,54.687500
5398,54.687500
5399,54.687500
5400,54.687500
5401,54.687500
5402,54.687500
5403,54.687500
5404,54.687500
5405,50.781250
5406,50.781250
5407,50.781250
5408,50.781250
5409,50.781250
5410,50.781250
5411,50.781250
5412,50.781250
5413,50.781250
5414,46.875000
5415,46.875000
5416,46.875000
5417,46.875000
5418,46.875000
5419,46.875000
5420,46.875000
5421,46.875000
5422,42.968750
5423,42.968750
5424,42.968750
5425,42.968750
5426,42.968750
5427,42.968750
5428,42.968750
5429,42.968750
5430,39.062500
5431,39.062500
5432,39.062500
5433,39.062500
5434,39.062500
5435,39.062500
5436,39.062500
5437,39.062500
5438,35.156250
5439,35.156250
5440,35.156250
5441,35.156250
5442,35.156250
5443,35.156250
5444,35.156250
5445,35.156250
5446,31.250000
5447,31.250000
5448,31.250000
5449,31.250000
5450,31.250000
5451,31.250000
5452,31.250000
5453,27.343750
5454,27.343750
5455,27.343750
5456,27.343750
5457,27.343750
5458,27.343750
5459,23.437500
5460,23.437500
5461,23.437500
5462,23.437500
5463,23.437500
5464,23.437500
5465,23.437500
5466,19.531250
5467,19.531250
5468,19.531250
5469,19.531250
5470,19.531250
5471,19.531250
5472,19.531250
5473,15.625000
5474,15.625000
5475,15.625000
5476,15.625000
5477,15.625000
5478,15.625000
5479,15.625000
5480,11.718750
5481,11.718750
5482,11.718750
5483,11.718750
5484,11.718750
5485,11.718750
5486,11.718750
5487,7.812500
5488,7.812500
5489,7.812500
5490,7.812500
5491,7.812500
5492,7.812500
5493,3.906250
5494,3.906250
5495,3.906250
5496,3.906250
5497,3.906250
5498,3.906250
5499,0.000000
5500,0.000000
5501,0.000000
5502,0.000000
5503,0.000000
5504,0.000000
5505,-3.906250
5506,-3.906250
5507,-3.906250
5508,-3.906250
5509,-3.906250
5510,-3.906250
5511,-3.906250
5512,-3.906250
5513,-7.812500
5514,-7.812500
5515,-7.812500
5516,-7.812500
5517,-7.812500
5518,-7.812500
5519,-11.718750
5520,-11.718750
5521,-11.718750
5522,-11.718750
5523,-11.718750
5524,-11.718750
5525,-11.718750
5526,-11.718750
5527,-15.625000
5528,-15.625000
5529,-15.625000
5530,-15.625000
5531,-19.531250
5532,-19.531250
5533,-19.531250
5534,-19.531250
5535,-19.531250
5536,-19.531250
5537,-19.531250
5538,-23.437500
5539,-23.437500
5540,-23.437500
5541,-23.437500
5542,-23.437500
5543,-27.343750
5544,-27.343750
5545,-27.343750
5546,-27.343750
5547,-27.343750
5548,-27.343750
5549,-31.250000
5550,-31.250000
5551,-31.250000
5552,-31.250000
5553,-31.250000
5554,-31.250000
5555,-35.156250
5556,-35.156250
5557,-35.156250
5558,-35.156250
5559,-35.156250
5560,-35.156250
5561,-39.062500
5562,-39.062500
5563,-39.062500
5564,-39.062500
5565,-39.062500
5566,-39.062500
5567,-39.062500
5568,-42.968750
5569,-42.968750
5570,-42.968750
5571,-42.968750
5572,-42.968750
5573,-42.968750
5574,-46.875000
5575,-46.875000
5576,-46.875000
5577,-46.875000
5578,-46.875000
5579,-46.875000
5580,-50.781250
5581,-50.781250
5582,-50.781250
5583,-50.781250
5584,-50.781250
5585,-50.781250
5586,-54.687500
5587,-54.687500
5588,-54.687500
5589,-54.687500
5590,-54.687500
5591,-54.687500
5592,-54.687500
5593,-58.593750
5594,-58.593750
5595,-58.593750
5596,-58.593750
5597,-58.593750
5598,-62.500000
5599,-62.500000
5600,-62.500000
5601,-62.500000
5602,-62.500000
5603,-62.500000
5604,-62.500000
5605,-62.500000
5606,-66.406250
5607,-66.406250
5608,-66.406250
5609,-66.406250
5610,-66.406250
5611,-66.406250
5612,-66.406250
5613,-70.312500
5614,-70.312500
5615,-70.312500
5616,-70.312500
5617,-70.312500
5618,-70.312500
5619,-70.312500
5620,-70.312500
5621,-74.218750
5622,-74.218750
5623,-74.218750
5624,-74.218750
5625,-74.218750
5626,-74.218750
5627,-74.218750
5628,-78.125000
5629,-78.125000
5630,-78.125000
5631,-78.125000
5632,-78.125000
5633,-78.125000
5634,-78.125000
5635,-78.125000
5636,-82.031250
5637,-82.031250
5638,-82.031250
5639,-82.031250
5640,-82.031250
5641,-82.031250
5642,-82.031250
5643,-82.031250
5644,-82.031250
5645,-85.937500
5646,-85.937500
5647,-85.937500
5648,-85.937500
5649,-85.937500
5650,-85.937500
5651,-85.937500
5652,-89.843750
5653,-89.843750
5654,-89.843750
5655,-89.843750
5656,-89.843750
5657,-89.843750
5658,-89.843750
5659,-89.843750
5660,-89.843750
5661,-93.750000
5662,-93.750000
5663,-93.750000
5664,-93.750000
5665,-93.750000
5666,-93.750000
5667,-93.750000
5668,-93.750000
5669,-93.750000
5670,-93.750000
5671,-97.656250
5672,-97.656250
5673,-97.656250
5674,-97.656250
5675,-97.656250
5676,-97.656250
5677,-97.656250
5678,-97.656250
5679,-97.656250
5680,-97.656250
5681,-101.562500
5682,-101.562500
5683,-101.562500
5684,-101.562500
5685,-101.562500
5686,-101.562500
5687,-101.562500
5688,-101.562500
5689,-101.562500
5690,-101.562500
5691,-105.468750
5692,-101.562500
5693,-105.468750
5694,-105.468750
5695,-105.468750
5696,-105.468750
5697,-105.468750
5698,-105.468750
5699,-105.468750
5700,-105.468750
5701,-105.468750
5702,-105.468750
5703,-105.468750
5704,-105.468750
5705,-105.468750
5706,-109.375000
5707,-109.375000
5708,-109.375000
5709,-109.375000
5710,-109.375000
5711,-109.375000
5712,-109.375000
5713,-109.375000
5714,-109.375000
5715,-109.375000
5716,-109.375000
5717,-109.375000
5718,-109.375000
5719,-109.375000
5720,-109.375000
5721,-109.375000
5722,-109.375000
5723,-113.281250
5724,-113.281250
5725,-113.281250
5726,-113.281250
5727,-113.281250
5728,-113.281250
5729,-113.281250
5730,-113.281250
5731,-113.281250
5732,-113.281250
5733,-113.281250
5734,-113.281250
5735,-113.281250
5736,-113.281250
5737,-113.281250
5738,-113.281250
5739,-113.281250
5740,-113.281250
5741,-113.281250
5742,-113.281250
5743,-113.281250
5744,-113.281250
5745,-113.281250
5746,-113.281250
5747,-113.281250
5748,-113.281250
5749,-117.187500
5750,-113.281250
5751,-113.281250
5752,-113.281250
5753,-117.187500
5754,-113.281250
5755,-113.281250
5756,-113.281250
5757,-117.187500
5758,-113.281250
5759,-117.187500
5760,-117.187500
5761,-113.281250
5762,-117.187500
5763,-117.187500
5764,-117.187500
5765,-117.187500
5766,-117.187500
5767,-117.187500
5768,-113.281250
5769,-113.281250
5770,-113.281250
5771,-113.281250
5772,-117.187500
5773,-113.281250
5774,-117.187500
5775,-117.187500
5776,-113.281250
5777,-117.187500
5778,-117.187500
5779,-113.281250
5780,-113.281250
5781,-113.281250
5782,-113.281250
5783,-113.281250
5784,-113.281250
5785,-113.281250
5786,-113.281250
5787,-113.281250
5788,-113.281250
5789,-113.281250
5790,-113.281250
5791,-113.281250
5792,-113.281250
5793,-113.281250
5794,-113.281250
5795,-113.281250
5796,-113.281250
5797,-113.281250
5798,-113.281250
5799,-113.281250
5800,-113.281250
5801,-113.281250
5802,-113.281250
5803,-113.281250
5804,-113.281250
5805,-113.281250
5806,-113.281250
5807,-113.281250
5808,-113.281250
5809,-109.375000
5810,-109.375000
5811,-109.375000
5812,-109.375000
5813,-109.375000
5814,-109.375000
5815,-109.375000
5816,-109.375000
5817,-109.375000
5818,-109.375000
5819,-109.375000
5820,-109.375000
5821,-109.375000
5822,-109.375000
5823,-109.375000
5824,-109.375000
5825,-109.375000
5826,-105.468750
5827,-105.468750
5828,-105.468750
5829,-105.468750
5830,-105.468750
5831,-105.468750
5832,-105.468750
5833,-105.468750
5834,-105.468750
5835,-105.468750
5836,-105.468750
5837,-105.468750
5838,-105.468750
5839,-105.468750
5840,-101.562500
5841,-101.562500
5842,-101.562500
5843,-101.562500
5844,-101.562500
5845,-101.562500
5846,-101.562500
5847,-101.562500
5848,-101.562500
5849,-101.562500
5850,-101.562500
5851,-101.562500
5852,-97.656250
5853,-101.562500
5854,-97.656250
5855,-97.656250
5856,-97.656250
5857,-97.656250
5858,-97.656250
5859,-97.656250
5860,-93.750000
5861,-97.656250
5862,-93.750000
5863,-93.750000
5864,-93.750000
5865,-93.750000
5866,-93.750000
5867,-93.750000
5868,-93.750000
5869,-93.750000
5870,-93.750000
5871,-93.750000
5872,-89.843750
5873,-89.843750
5874,-89.843750
5875,-89.843750
5876,-89.843750
5877,-89.843750
5878,-85.937500
5879,-89.843750
5880,-85.937500
5881,-85.937500
5882,-85.937500
5883,-85.937500
5884,-85.937500
5885,-85.937500
5886,-85.937500
5887,-85.937500
5888,-85.937500
5889,-82.031250
5890,-82.031250
5891,-82.031250
5892,-82.031250
5893,-82.031250
5894,-82.031250
5895,-82.031250
5896,-82.031250
5897,-78.125000
5898,-78.125000
5899,-78.125000
5900,-78.125000
5901,-78.125000
5902,-78.125000
5903,-74.218750
5904,-74.218750
5905,-74.218750
5906,-74.218750
5907,-74.218750
5908,-74.218750
5909,-74.218750
5910,-74.218750
5911,-70.312500
5912,-70.312500
5913,-70.312500
5914,-70.312500
5915,-70.312500
5916,-70.312500
5917,-66.406250
5918,-66.406250
5919,-66.406250
5920,-66.406250
5921,-66.406250
5922,-66.406250
5923,-66.406250
5924,-66.406250
5925,-66.406250
5926,-62.500000
5927,-62.500000
5928,-62.500000
5929,-62.500000
5930,-62.500000
5931,-62.500000
5932,-58.593750
5933,-58.593750
5934,-58.593750
5935,-58.593750
5936,-58.593750
5937,-58.593750
5938,-54.687500
5939,-54.687500
5940,-54.687500
5941,-54.687500
5942,-54.687500
5943,-54.687500
5944,-54.687500
5945,-54.687500
5946,-50.781250
5947,-50.781250
5948,-50.781250
5949,-50.781250
5950,-50.781250
5951,-46.875000
5952,-46.875000
5953,-46.875000
5954,-46.875000
5955,-46.875000
5956,-46.875000
5957,-42.968750
5958,-42.968750
5959,-42.968750
5960,-42.968750
5961,-42.968750
5962,-42.968750
5963,-42.968750
5964,-42.968750
5965,-39.062500
5966,-39.062500
5967,-39.062500
5968,-39.062500
5969,-39.062500
5970,-35.156250
5971,-35.156250
5972,-35.156250
5973,-35.156250
5974,-35.156250
5975,-35.156250
5976,-31.250000
5977,-31.250000
5978,-31.250000
5979,-31.250000
5980,-31.250000
5981,-31.250000
5982,-31.250000
5983,-31.250000
5984,-27.343750
5985,-27.343750
5986,-27.343750
5987,-27.343750
5988,-27.343750
5989,-23.437500
5990,-23.437500
5991,-23.437500
5992,-23.437500
5993,-23.437500
5994,-23.437500
5995,-23.437500
5996,-19.531250
5997,-19.531250
5998,-19.531250
5999,-19.531250
6000,-15.625000
6001,-19.531250
6002,-15.625000
6003,-15.625000
6004,-15.625000
6005,-15.625000
6006,-15.625000
6007,-15.625000
6008,-11.718750
6009,-11.718750
6010,-11.718750
6011,-11.718750
6012,-11.718750
6013,-7.812500
6014,-7.812500
6015,-7.812500
6016,-7.812500
6017,-7.812500
6018,-7.812500
6019,-7.812500
6020,-7.812500
6021,-3.906250
6022,-3.906250
6023,-3.906250
6024,-3.906250
6025,-3.906250
6026,0.000000
6027,0.000000
6028,0.000000
6029,0.000000
6030,0.000000
6031,0.000000
6032,3.906250
6033,3.906250
6034,3.906250
6035,3.906250
6036,3.906250
6037,3.906250
6038,7.812500
6039,7.812500
6040,7.812500
6041,7.812500
6042,7.812500
6043,7.812500
6044,7.812500
6045,7.812500
6046,11.718750
6047,11.718750
6048,11.718750
6049,11.718750
6050,11.718750
6051,11.718750
6052,15.625000
6053,15.625000
6054,15.625000
6055,15.625000
6056,15.625000
6057,15.625000
6058,15.625000
6059,19.531250
6060,19.531250
6061,19.531250
6062,19.531250
6063,19.531250
6064,19.531250
6065,23.437500
6066,23.437500
6067,23.437500
6068,23.437500
6069,23.437500
6070,23.437500
6071,23.437500
6072,23.437500
6073,27.343750
6074,27.343750
6075,27.343750
6076,27.343750
6077,27.343750
6078,27.343750
6079,27.343750
6080,31.250000
6081,31.250000
6082,31.250000
6083,31.250000
6084,31.250000
6085,31.250000
6086,31.250000
6087,35.156250
6088,35.156250
6089,35.156250
6090,35.156250
6091,35.156250
6092,35.156250
6093,39.062500
6094,39.062500
6095,35.156250
6096,39.062500
6097,39.062500
6098,39.062500
6099,39.062500
6100,39.062500
6101,42.968750
6102,39.062500
6103,42.968750
6104,42.968750
6105,42.968750
6106,42.968750
6107,42.968750
6108,42.968750
6109,42.968750
6110,42.968750
6111,46.875000
6112,46.875000
6113,46.875000
6114,46.875000
6115,46.875000
6116,46.875000
6117,46.875000
6118,50.781250
6119,50.781250
6120,50.781250
6121,50.781250
6122,50.781250
6123,50.781250
6124,50.781250
6125,50.781250
6126,54.687500
6127,54.687500
6128,54.687500
6129,54.687500
6130,54.687500
6131,54.687500
6132,54.687500
6133,54.687500
6134,54.687500
6135,54.687500
6136,54.687500
6137,58.593750
6138,58.593750
6139,58.593750
6140,58.593750
6141,58.593750
6142,58.593750
6143,58.593750
6144,58.593750
6145,62.500000
6146,62.500000
6147,62.500000
6148,62.500000
6149,62.500000
6150,62.500000
6151,62.500000
6152,62.500000
6153,62.500000
6154,62.500000
6155,62.500000
6156,62.500000
6157,66.406250
6158,66.406250
6159,66.406250
6160,66.406250
6161,66.406250
6162,66.406250
6163,66.406250
6164,66.406250
6165,66.406250
6166,70.312500
6167,66.406250
6168,66.406250
6169,70.312500
6170,70.312500
6171,70.312500
6172,70.312500
6173,70.312500
6174,70.312500
6175,70.312500
6176,70.312500
6177,70.312500
6178,70.312500
6179,70.312500
6180,70.312500
6181,70.312500
6182,70.312500
6183,74.218750
6184,74.218750
6185,74.218750
6186,74.218750
6187,74.218750
6188,74.218750
6189,74.218750
6190,74.218750
6191,74.218750
6192,74.218750
6193,74.218750
6194,74.218750
6195,74.218750
6196,74.218750
6197,74.218750
6198,74.218750
6199,74.218750
6200,78.125000
6201,78.125000
6202,78.125000
6203,78.125000
6204,78.125000
6205,78.125000
6206,78.125000
6207,78.125000
6208,78.125000
6209,78.125000
6210,78.125000
6211,78.125000
6212,78.125000
6213,78.125000
6214,78.125000
6215,78.125000
6216,78.125000
6217,78.125000
6218,78.125000
6219,78.125000
6220,78.125000
6221,82.031250
6222,82.031250
6223,82.031250
6224,82.031250
6225,78.125000
6226,82.031250
6227,82.031250
6228,82.031250
6229,82.031250
6230,82.031250
6231,82.031250
6232,82.031250
6233,82.031250
6234,82.031250
6235,82.031250
6236,82.031250
6237,82.031250
6238,82.031250
6239,82.031250
6240,82.031250
6241,82.031250
6242,82.031250
6243,82.031250
6244,82.031250
6245,82.031250
6246,82.031250
6247,82.031250
6248,82.031250
6249,82.031250
6250,82.031250
6251,82.031250
6252,82.031250
6253,82.031250
6254,82.031250
6255,82.031250
6256,82.031250
6257,82.031250
6258,82.031250
6259,82.031250
6260,82.031250
6261,82.031250
6262,82.031250
6263,82.031250
6264,82.031250
6265,82.031250
6266,82.031250
6267,82.031250
6268,82.031250
6269,82.031250
6270,82.031250
6271,82.031250
6272,82.031250
6273,82.031250
6274,82.031250
6275,82.031250
6276,82.031250
6277,82.031250
6278,82.031250
6279,82.031250
6280,82.031250
6281,82.031250
6282,82.031250
6283,82.031250
6284,82.031250
6285,82.031250
6286,82.031250
6287,82.031250
6288,82.031250
6289,82.031250
6290,82.031250
6291,82.031250
6292,82.031250
6293,82.031250
6294,82.031250
6295,82.031250
6296,78.125000
6297,82.031250
6298,78.125000
6299,82.031250
6300,78.125000
6301,82.031250
6302,82.031250
6303,82.031250
6304,78.125000
6305,78.125000
6306,78.125000
6307,78.125000
6308,78.125000
6309,78.125000
6310,78.125000
6311,78.125000
6312,78.125000
6313,78.125000
6314,78.125000
6315,78.125000
6316,78.125000
6317,78.125000
6318,78.125000
6319,78.125000
6320,78.125000
6321,78.125000
6322,78.125000
6323,74.218750
6324,78.125000
6325,74.218750
6326,74.218750
6327,74.218750
6328,74.218750
6329,74.218750
6330,74.218750
6331,74.218750
6332,74.218750
6333,74.218750
6334,74.218750
6335,74.218750
6336,74.218750
6337,74.218750
6338,74.218750
6339,70.312500
6340,70.312500
6341,70.312500
6342,70.312500
6343,70.312500
6344,70.312500
6345,70.312500
6346,70.312500
6347,70.312500
6348,66.406250
6349,70.312500
6350,70.312500
6351,70.312500
6352,70.312500
6353,70.312500
6354,66.406250
6355,66.406250
6356,70.312500
6357,66.406250
6358,66.406250
6359,66.406250
6360,66.406250
6361,66.406250
6362,66.406250
6363,66.406250
6364,62.500000
6365,66.406250
6366,66.406250
6367,62.500000
6368,62.500000
6369,62.500000
6370,62.500000
6371,62.500000
6372,62.500000
6373,62.500000
6374,62.500000
6375,62.500000
6376,62.500000
6377,58.593750
6378,58.593750
6379,58.593750
6380,58.593750
6381,58.593750
6382,58.593750
6383,58.593750
6384,58.593750
6385,58.593750
6386,58.593750
6387,58.593750
6388,54.687500
6389,54.687500
6390,54.687500
6391,54.687500
6392,54.687500
6393,54.687500
6394,54.687500
6395,54.687500
6396,54.687500
6397,50.781250
6398,50.781250
6399,50.781250
6400,50.781250
6401,50.781250
6402,50.781250
6403,50.781250
6404,50.781250
6405,50.781250
6406,50.781250
6407,46.875000
6408,46.875000
6409,46.875000
6410,46.875000
6411,46.875000
6412,46.875000
6413,42.968750
6414,42.968750
6415,42.968750
6416,42.968750
6417,42.968750
6418,42.968750
6419,42.968750
6420,42.968750
6421,42.968750
6422,42.968750
6423,39.062500
6424,39.062500
6425,39.062500
6426,39.062500
6427,39.062500
6428,39.062500
6429,35.156250
6430,35.156250
6431,35.156250
6432,35.156250
6433,35.156250
6434,35.156250
6435,35.156250
6436,35.156250
6437,35.156250
6438,35.156250
6439,31.250000
6440,31.250000
6441,31.250000
6442,31.250000
6443,31.250000
6444,31.250000
6445,27.343750
6446,27.343750
6447,27.343750
6448,27.343750
6449,27.343750
6450,27.343750
6451,27.343750
6452,23.437500
6453,23.437500
6454,23.437500
6455,23.437500
6456,23.437500
6457,23.437500
6458,23.437500
6459,19.531250
6460,19.531250
6461,19.531250
6462,19.531250
6463,19.531250
6464,19.531250
6465,19.531250
6466,15.625000
6467,15.625000
6468,15.625000
6469,15.625000
6470,15.625000
6471,15.625000
6472,11.718750
6473,11.718750
6474,11.718750
6475,11.718750
6476,11.718750
6477,11.718750
6478,11.718750
6479,7.812500
6480,7.812500
6481,7.812500
6482,7.812500
6483,7.812500
6484,7.812500
6485,3.906250
6486,3.906250
6487,3.906250
6488,3.906250
6489,3.906250
6490,3.906250
6491,0.000000
6492,0.000000
6493,0.000000
6494,0.000000
6495,0.000000
6496,0.000000
6497,-3.906250
6498,-3.906250
6499,-3.906250
6500,-3.906250
6501,-3.906250
6502,-3.906250
6503,-3.906250
6504,-3.906250
6505,-7.812500
6506,-7.812500
6507,-7.812500
6508,-7.812500
6509,-7.812500
6510,-11.718750
6511,-11.718750
6512,-11.718750
6513,-11.718750
6514,-11.718750
6515,-11.718750
6516,-11.718750
6517,-15.625000
6518,-15.625000
6519,-15.625000
6520,-15.625000
6521,-19.531250
6522,-19.531250
6523,-15.625000
6524,-19.531250
6525,-19.531250
6526,-19.531250
6527,-19.531250
6528,-19.531250
6529,-23.437500
6530,-23.437500
6531,-23.437500
6532,-23.437500
6533,-23.437500
6534,-23.437500
6535,-23.437500
6536,-27.343750
6537,-27.343750
6538,-27.343750
6539,-27.343750
6540,-27.343750
6541,-31.250000
6542,-31.250000
6543,-31.250000
6544,-31.250000
6545,-31.250000
6546,-31.250000
6547,-35.156250
6548,-35.156250
6549,-35.156250
6550,-35.156250
6551,-35.156250
6552,-39.062500
6553,-35.156250
6554,-35.156250
6555,-39.062500
6556,-39.062500
6557,-39.062500
6558,-39.062500
6559,-42.968750
6560,-42.968750
6561,-42.968750
6562,-42.968750
6563,-42.968750
6564,-42.968750
6565,-42.968750
6566,-46.875000
6567,-46.875000
6568,-46.875000
6569,-46.875000
6570,-46.875000
6571,-46.875000
6572,-50.781250
6573,-50.781250
6574,-50.781250
6575,-50.781250
6576,-50.781250
6577,-50.781250
6578,-50.781250
6579,-50.781250
6580,-54.687500
6581,-54.687500
6582,-54.687500
6583,-54.687500
6584,-54.687500
6585,-54.687500
6586,-58.593750
6587,-58.593750
6588,-58.593750
6589,-58.593750
6590,-58.593750
6591,-58.593750
6592,-58.593750
6593,-62.500000
6594,-62.500000
6595,-62.500000
6596,-62.500000
6597,-62.500000
6598,-66.406250
6599,-66.406250
6600,-66.406250
6601,-66.406250
6602,-66.406250
6603,-66.406250
6604,-66.406250
6605,-66.406250
6606,-66.406250
6607,-70.312500
6608,-70.312500
6609,-70.312500
6610,-70.312500
6611,-70.312500
6612,-70.312500
6613,-74.218750
6614,-74.218750
6615,-74.218750
6616,-74.218750
6617,-74.218750
6618,-78.125000
6619,-74.218750
6620,-78.125000
6621,-78.125000
6622,-78.125000
6623,-78.125000
6624,-78.125000
6625,-78.125000
6626,-78.125000
6627,-82.031250
6628,-82.031250
6629,-82.031250
6630,-82.031250
6631,-82.031250
6632,-82.031250
6633,-82.031250
6634,-82.031250
6635,-82.031250
6636,-82.031250
6637,-85.937500
6638,-85.937500
6639,-85.937500
6640,-85.937500
6641,-85.937500
6642,-85.937500
6643,-89.843750
6644,-85.937500
6645,-89.843750
6646,-89.843750
6647,-89.843750
6648,-89.843750
6649,-89.843750
6650,-89.843750
6651,-89.843750
6652,-89.843750
6653,-93.750000
6654,-93.750000
6655,-93.750000
6656,-93.750000
6657,-93.750000
6658,-93.750000
6659,-93.750000
6660,-93.750000
6661,-97.656250
6662,-93.750000
6663,-93.750000
6664,-97.656250
6665,-97.656250
6666,-97.656250
6667,-97.656250
6668,-97.656250
6669,-97.656250
6670,-97.656250
6671,-97.656250
6672,-101.562500
6673,-97.656250
6674,-101.562500
6675,-101.562500
6676,-101.562500
6677,-101.562500
6678,-101.562500
6679,-101.562500
6680,-101.562500
6681,-101.562500
6682,-101.562500
6683,-101.562500
6684,-105.468750
6685,-105.468750
6686,-101.562500
6687,-105.468750
6688,-109.375000
6689,-105.468750
6690,-105.468750
6691,-105.468750
6692,-105.468750
6693,-105.468750
6694,-109.375000
6695,-105.468750
6696,-105.468750
6697,-109.375000
6698,-105.468750
6699,-109.375000
6700,-109.375000
6701,-109.375000
6702,-109.375000
6703,-109.375000
6704,-109.375000
6705,-109.375000
6706,-109.375000
6707,-109.375000
6708,-109.375000
6709,-109.375000
6710,-109.375000
6711,-109.375000
6712,-109.375000
6713,-109.375000
6714,-113.281250
6715,-109.375000
6716,-109.375000
6717,-109.375000
6718,-113.281250
6719,-113.281250
6720,-109.375000
6721,-113.281250
6722,-109.375000
6723,-113.281250
6724,-113.281250
6725,-113.281250
6726,-113.281250
6727,-113.281250
6728,-113.281250
6729,-113.281250
6730,-113.281250
6731,-113.281250
6732,-113.281250
6733,-113.281250
6734,-109.375000
6735,-113.281250
6736,-113.281250
6737,-113.281250
6738,-113.281250
6739,-113.281250
6740,-113.281250
6741,-113.281250
6742,-113.281250
6743,-113.281250
6744,-113.281250
6745,-113.281250
6746,-113.281250
6747,-113.281250
6748,-113.281250
6749,-117.187500
6750,-117.187500
6751,-113.281250
6752,-113.281250
6753,-113.281250
6754,-113.281250
6755,-113.281250
6756,-113.281250
6757,-113.281250
6758,-113.281250
6759,-113.281250
6760,-117.187500
6761,-117.187500
6762,-113.281250
6763,-113.281250
6764,-113.281250
6765,-113.281250
6766,-113.281250
6767,-113.281250
6768,-113.281250
6769,-113.281250
6770,-113.281250
6771,-113.281250
6772,-113.281250
6773,-113.281250
6774,-113.281250
6775,-113.281250
6776,-113.281250
6777,-113.281250
6778,-113.281250
6779,-113.281250
6780,-113.281250
6781,-113.281250
6782,-113.281250
6783,-113.281250
6784,-113.281250
6785,-113.281250
6786,-109.375000
6787,-113.281250
6788,-113.281250
6789,-113.281250
6790,-113.281250
6791,-113.281250
6792,-113.281250
6793,-113.281250
6794,-113.281250
6795,-109.375000
6796,-109.375000
6797,-109.375000
6798,-109.375000
6799,-109.375000
6800,-109.375000
6801,-109.375000
6802,-109.375000
6803,-109.375000
6804,-109.375000
6805,-109.375000
6806,-109.375000
6807,-109.375000
6808,-109.375000
6809,-109.375000
6810,-109.375000
6811,-109.375000
6812,-109.375000
6813,-105.468750
6814,-105.468750
6815,-105.468750
6816,-105.468750
6817,-105.468750
6818,-105.468750
6819,-105.468750
6820,-105.468750
6821,-105.468750
6822,-105.468750
6823,-105.468750
6824,-105.468750
6825,-105.468750
6826,-105.468750
6827,-105.468750
6828,-101.562500
6829,-101.562500
6830,-101.562500
6831,-101.562500
6832,-101.562500
6833,-101.562500
6834,-101.562500
6835,-101.562500
6836,-101.562500
6837,-101.562500
6838,-101.562500
6839,-101.562500
6840,-101.562500
6841,-97.656250
6842,-97.656250
6843,-97.656250
6844,-97.656250
6845,-97.656250
6846,-97.656250
6847,-97.656250
6848,-97.656250
6849,-97.656250
6850,-93.750000
6851,-97.656250
6852,-93.750000
6853,-93.750000
6854,-93.750000
6855,-93.750000
6856,-93.750000
6857,-93.750000
6858,-93.750000
6859,-93.750000
6860,-93.750000
6861,-89.843750
6862,-89.843750
6863,-89.843750
6864,-89.843750
6865,-89.843750
6866,-89.843750
6867,-89.843750
6868,-89.843750
6869,-85.937500
6870,-85.937500
6871,-85.937500
6872,-85.937500
6873,-85.937500
6874,-85.937500
6875,-85.937500
6876,-85.937500
6877,-82.031250
6878,-82.031250
6879,-82.031250
6880,-82.031250
6881,-82.031250
6882,-82.031250
6883,-82.031250
6884,-82.031250
6885,-78.125000
6886,-78.125000
6887,-78.125000
6888,-78.125000
6889,-78.125000
6890,-78.125000
6891,-78.125000
6892,-78.125000
6893,-74.218750
6894,-74.218750
6895,-74.218750
6896,-74.218750
6897,-74.218750
6898,-74.218750
6899,-74.218750
6900,-74.218750
6901,-74.218750
6902,-70.312500
6903,-70.312500
6904,-70.312500
6905,-70.312500
6906,-70.312500
6907,-70.312500
6908,-66.406250
6909,-66.406250
6910,-66.406250
6911,-66.406250
6912,-66.406250
6913,-66.406250
6914,-62.500000
6915,-62.500000
6916,-62.500000
6917,-62.500000
6918,-62.500000
6919,-62.500000
6920,-62.500000
6921,-58.593750
6922,-58.593750
6923,-58.593750
6924,-58.593750
6925,-58.593750
6926,-58.593750
6927,-58.593750
6928,-58.593750
6929,-54.687500
6930,-54.687500
6931,-54.687500
6932,-54.687500
6933,-54.687500
6934,-54.687500
6935,-50.781250
6936,-50.781250
6937,-50.781250
6938,-50.781250
6939,-50.781250
6940,-50.781250
6941,-46.875000
6942,-46.875000
6943,-46.875000
6944,-46.875000
6945,-46.875000
6946,-46.875000
6947,-42.968750
6948,-42.968750
6949,-42.968750
6950,-42.968750
6951,-42.968750
6952,-42.968750
6953,-42.968750
6954,-39.062500
6955,-39.062500
6956,-39.062500
6957,-39.062500
6958,-39.062500
6959,-35.156250
6960,-35.156250
6961,-35.156250
6962,-35.156250
6963,-35.156250
6964,-35.156250
6965,-35.156250
6966,-31.250000
6967,-31.250000
6968,-31.250000
6969,-31.250000
6970,-31.250000
6971,-31.250000
6972,-27.343750
6973,-27.343750
6974,-27.343750
6975,-27.343750
6976,-27.343750
6977,-27.343750
6978,-23.437500
6979,-23.437500
6980,-23.437500
6981,-23.437500
6982,-23.437500
6983,-23.437500
6984,-23.437500
6985,-19.531250
6986,-19.531250
6987,-19.531250
6988,-19.531250
6989,-19.531250
6990,-19.531250
6991,-15.625000
6992,-15.625000
6993,-15.625000
6994,-15.625000
6995,-15.625000
6996,-15.625000
6997,-11.718750
6998,-11.718750
6999,-11.718750
7000,-11.718750
7001,-11.718750
7002,-11.718750
7003,-7.812500
7004,-7.812500
7005,-7.812500
7006,-7.812500
7007,-7.812500
7008,-7.812500
7009,-7.812500
7010,-3.906250
7011,-3.906250
7012,-3.906250
7013,-3.906250
7014,-3.906250
7015,-3.906250
7016,0.000000
7017,0.000000
7018,0.000000
7019,0.000000
7020,0.000000
7021,0.000000
7022,0.000000
7023,3.906250
7024,3.906250
7025,3.906250
7026,3.906250
7027,3.906250
7028,7.812500
7029,7.812500
7030,7.812500
7031,7.812500
7032,7.812500
7033,7.812500
7034,7.812500
7035,11.718750
7036,11.718750
7037,11.718750
7038,11.718750
7039,11.718750
7040,11.718750
7041,11.718750
7042,15.625000
7043,15.625000
7044,15.625000
7045,15.625000
7046,15.625000
7047,15.625000
7048,19.531250
7049,19.531250
7050,19.531250
7051,19.531250
7052,19.531250
7053,19.531250
7054,19.531250
7055,19.531250
7056,23.437500
7057,23.437500
7058,23.437500
7059,23.437500
7060,23.437500
7061,27.343750
7062,27.343750
7063,27.343750
7064,27.343750
7065,27.343750
7066,27.343750
7067,27.343750
7068,31.250000
7069,31.250000
7070,31.250000
7071,31.250000
7072,31.250000
7073,31.250000
7074,31.250000
7075,31.250000
7076,35.156250
7077,35.156250
7078,35.156250
7079,35.156250
7080,35.156250
7081,35.156250
7082,35.156250
7083,35.156250
7084,39.062500
7085,39.062500
7086,39.062500
7087,39.062500
7088,39.062500
7089,39.062500
7090,39.062500
7091,42.968750
7092,42.968750
7093,42.968750
7094,42.968750
7095,42.968750
7096,42.968750
7097,42.968750
7098,42.968750
7099,46.875000
7100,46.875000
7101,46.875000
7102,46.875000
7103,46.875000
7104,46.875000
7105,46.875000
7106,46.875000
7107,46.875000
7108,50.781250
7109,50.781250
7110,50.781250
7111,50.781250
7112,50.781250
7113,50.781250
7114,50.781250
7115,50.781250
7116,50.781250
7117,54.687500
7118,54.687500
7119,54.687500
7120,54.687500
7121,54.687500
7122,54.687500
7123,54.687500
7124,54.687500
7125,54.687500
7126,54.687500
7127,58.593750
7128,58.593750
7129,58.593750
7130,58.593750
7131,58.593750
7132,58.593750
7133,58.593750
7134,58.593750
7135,58.593750
7136,62.500000
7137,62.500000
7138,62.500000
7139,62.500000
7140,62.500000
7141,62.500000
7142,62.500000
7143,62.500000
7144,62.500000
7145,66.406250
7146,62.500000
7147,66.406250
7148,66.406250
7149,66.406250
7150,66.406250
7151,66.406250
7152,66.406250
7153,66.406250
7154,66.406250
7155,66.406250
7156,66.406250
7157,66.406250
7158,66.406250
7159,66.406250
7160,70.312500
7161,70.312500
7162,70.312500
7163,70.312500
7164,70.312500
7165,70.312500
7166,70.312500
7167,70.312500
7168,70.312500
7169,70.312500
7170,70.312500
7171,70.312500
7172,70.312500
7173,74.218750
7174,74.218750
7175,74.218750
7176,74.218750
7177,74.218750
7178,74.218750
7179,74.218750
7180,74.218750
7181,74.218750
7182,74.218750
7183,74.218750
7184,74.218750
7185,74.218750
7186,74.218750
7187,74.218750
7188,74.218750
7189,78.125000
7190,74.218750
7191,74.218750
7192,78.125000
7193,78.125000
7194,78.125000
7195,78.125000
7196,78.125000
7197,78.125000
7198,78.125000
7199,78.125000
7200,78.125000
7201,78.125000
7202,78.125000
7203,78.125000
7204,78.125000
7205,78.125000
7206,78.125000
7207,78.125000
7208,78.125000
7209,78.125000
7210,78.125000
7211,78.125000
7212,78.125000
7213,78.125000
7214,82.031250
7215,82.031250
7216,82.031250
7217,82.031250
7218,82.031250
7219,82.031250
7220,82.031250
7221,82.031250
7222,82.031250
7223,82.031250
7224,82.031250
7225,82.031250
7226,82.031250
7227,82.031250
7228,82.031250
7229,82.031250
7230,82.031250
7231,82.031250
7232,82.031250
7233,82.031250
7234,82.031250
7235,82.031250
7236,82.031250
7237,82.031250
7238,82.031250
7239,82.031250
7240,82.031250
7241,82.031250
7242,82.031250
7243,82.031250
7244,82.031250
7245,82.031250
7246,82.031250
7247,82.031250
7248,82.031250
7249,82.031250
7250,82.031250
7251,82.031250
7252,82.031250
7253,82.031250
7254,82.031250
7255,82.031250
7256,82.031250
7257,82.031250
7258,82.031250
7259,82.031250
7260,82.031250
7261,82.031250
7262,82.031250
7263,82.031250
7264,82.031250
7265,82.031250
7266,82.031250
7267,82.031250
7268,82.031250
7269,82.031250
7270,82.031250
7271,82.031250
7272,82.031250
7273,82.031250
7274,82.031250
7275,82.031250
7276,82.031250
7277,82.031250
7278,82.031250
7279,82.031250
7280,82.031250
7281,82.031250
7282,82.031250
7283,82.031250
7284,82.031250
7285,82.031250
7286,82.031250
7287,82.031250
7288,82.031250
7289,82.031250
7290,82.031250
7291,82.031250
7292,82.031250
7293,82.031250
7294,78.125000
7295,78.125000
7296,78.125000
7297,78.125000
7298,78.125000
7299,78.125000
7300,78.125000
7301,78.125000
7302,78.125000
7303,78.125000
7304,78.125000
7305,78.125000
7306,78.125000
7307,78.125000
7308,78.125000
7309,78.125000
7310,78.125000
7311,78.125000
7312,78.125000
7313,78.125000
7314,78.125000
7315,78.125000
7316,74.218750
7317,74.218750
7318,74.218750
7319,74.218750
7320,74.218750
7321,74.218750
7322,74.218750
7323,74.218750
7324,74.218750
7325,74.218750
7326,74.218750
7327,74.218750
7328,74.218750
7329,74.218750
7330,70.312500
7331,70.312500
7332,70.312500
7333,70.312500
7334,70.312500
7335,70.312500
7336,70.312500
7337,70.312500
7338,70.312500
7339,70.312500
7340,70.312500
7341,70.312500
7342,70.312500
7343,70.312500
7344,70.312500
7345,70.312500
7346,66.406250
7347,66.406250
7348,66.406250
7349,66.406250
7350,66.406250
7351,66.406250
7352,66.406250
7353,66.406250
7354,66.406250
7355,66.406250
7356,66.406250
7357,66.406250
7358,62.500000
7359,62.500000
7360,62.500000
7361,62.500000
7362,62.500000
7363,62.500000
7364,62.500000
7365,62.500000
7366,62.500000
7367,62.500000
7368,62.500000
7369,58.593750
7370,58.593750
7371,58.593750
7372,58.593750
7373,58.593750
7374,58.593750
7375,58.593750
7376,58.593750
7377,58.593750
7378,58.593750
7379,54.687500
7380,54.687500
7381,54.687500
7382,54.687500
7383,54.687500
7384,54.687500
7385,54.687500
7386,54.687500
7387,54.687500
7388,54.687500
7389,50.781250
7390,50.781250
7391,50.781250
7392,50.781250
7393,50.781250
7394,50.781250
7395,50.781250
7396,50.781250
7397,46.875000
7398,46.875000
7399,46.875000
7400,46.875000
7401,46.875000
7402,46.875000
7403,46.875000
7404,42.968750
7405,42.968750
7406,42.968750
7407,42.968750
7408,42.968750
7409,42.968750
7410,42.968750
7411,42.968750
7412,42.968750
7413,42.968750
7414,39.062500
7415,39.062500
7416,39.062500
7417,39.062500
7418,39.062500
7419,39.062500
7420,35.156250
7421,35.156250
7422,35.156250
7423,35.156250
7424,35.156250
7425,35.156250
7426,35.156250
7427,35.156250
7428,31.250000
7429,31.250000
7430,31.250000
7431,31.250000
7432,31.250000
7433,31.250000
7434,31.250000
7435,31.250000
7436,27.343750
7437,27.343750
7438,27.343750
7439,27.343750
7440,27.343750
7441,27.343750
7442,27.343750
7443,23.437500
7444,23.437500
7445,23.437500
7446,23.437500
7447,23.437500
7448,23.437500
7449,23.437500
7450,19.531250
7451,19.531250
7452,19.531250
7453,19.531250
7454,19.531250
7455,19.531250
7456,15.625000
7457,15.625000
7458,15.625000
7459,15.625000
7460,15.625000
7461,15.625000
7462,15.625000
7463,11.718750
7464,11.718750
7465,11.718750
7466,11.718750
7467,11.718750
7468,11.718750
7469,11.718750
7470,7.812500
7471,7.812500
7472,7.812500
7473,7.812500
7474,7.812500
7475,7.812500
7476,3.906250
7477,3.906250
7478,3.906250
7479,3.906250
7480,3.906250
7481,3.906250
7482,0.000000
7483,0.000000
7484,0.000000
7485,0.000000
7486,0.000000
7487,0.000000
7488,0.000000
7489,0.000000
7490,-3.906250
7491,-3.906250
7492,-3.906250
7493,-3.906250
7494,-3.906250
7495,-7.812500
7496,-7.812500
7497,-7.812500
7498,-7.812500
7499,-7.812500
7500,-7.812500
7501,-7.812500
7502,-11.718750
7503,-11.718750
7504,-11.718750
7505,-11.718750
7506,-11.718750
7507,-15.625000
7508,-15.625000
7509,-15.625000
7510,-15.625000
7511,-15.625000
7512,-15.625000
7513,-15.625000
7514,-19.531250
7515,-19.531250
7516,-19.531250
7517,-19.531250
7518,-19.531250
7519,-23.437500
7520,-23.437500
7521,-23.437500
7522,-23.437500
7523,-23.437500
7524,-23.437500
7525,-27.343750
7526,-27.343750
7527,-27.343750
7528,-27.343750
7529,-27.343750
7530,-27.343750
7531,-27.343750
7532,-27.343750
7533,-31.250000
7534,-31.250000
7535,-31.250000
7536,-31.250000
7537,-35.156250
7538,-35.156250
7539,-35.156250
7540,-35.156250
7541,-35.156250
7542,-35.156250
7543,-35.156250
7544,-39.062500
7545,-39.062500
7546,-39.062500
7547,-39.062500
7548,-39.062500
7549,-39.062500
7550,-39.062500
7551,-42.968750
7552,-42.968750
7553,-42.968750
7554,-42.968750
7555,-42.968750
7556,-42.968750
7557,-46.875000
7558,-46.875000
7559,-46.875000
7560,-46.875000
7561,-46.875000
7562,-46.875000
7563,-50.781250
7564,-50.781250
7565,-50.781250
7566,-50.781250
7567,-50.781250
7568,-50.781250
7569,-54.687500
7570,-50.781250
7571,-54.687500
7572,-54.687500
7573,-54.687500
7574,-54.687500
7575,-54.687500
7576,-58.593750
7577,-58.593750
7578,-58.593750
7579,-58.593750
7580,-58.593750
7581,-58.593750
7582,-58.593750
7583,-62.500000
7584,-62.500000
7585,-62.500000
7586,-62.500000
7587,-62.500000
7588,-62.500000
7589,-62.500000
7590,-62.500000
7591,-66.406250
7592,-66.406250
7593,-66.406250
7594,-66.406250
7595,-70.312500
7596,-70.312500
7597,-70.312500
7598,-70.312500
7599,-70.312500
7600,-70.312500
7601,-70.312500
7602,-70.312500
7603,-70.312500
7604,-74.218750
7605,-74.218750
7606,-74.218750
7607,-74.218750
7608,-74.218750
7609,-74.218750
7610,-74.218750
7611,-74.218750
7612,-78.125000
7613,-78.125000
7614,-78.125000
7615,-78.125000
7616,-78.125000
7617,-78.125000
7618,-82.031250
7619,-82.031250
7620,-82.031250
7621,-82.031250
7622,-82.031250
7623,-82.031250
7624,-82.031250
7625,-82.031250
7626,-82.031250
7627,-82.031250
7628,-85.937500
7629,-85.937500
7630,-85.937500
7631,-85.937500
7632,-85.937500
7633,-85.937500
7634,-89.843750
7635,-85.937500
7636,-89.843750
7637,-89.843750
7638,-89.843750
7639,-89.843750
7640,-89.843750
7641,-89.843750
7642,-89.843750
7643,-89.843750
7644,-89.843750
7645,-89.843750
7646,-93.750000
7647,-93.750000
7648,-93.750000
7649,-93.750000
7650,-93.750000
7651,-93.750000
7652,-93.750000
7653,-93.750000
7654,-93.750000
7655,-97.656250
7656,-97.656250
7657,-97.656250
7658,-97.656250
7659,-97.656250
7660,-97.656250
7661,-97.656250
7662,-97.656250
7663,-97.656250
7664,-97.656250
7665,-97.656250
7666,-101.562500
7667,-101.562500
7668,-101.562500
7669,-101.562500
7670,-101.562500
7671,-101.562500
7672,-101.562500
7673,-101.562500
7674,-101.562500
7675,-101.562500
7676,-101.562500
7677,-101.562500
7678,-101.562500
7679,-105.468750
7680,-105.468750
7681,-105.468750
7682,-105.468750
7683,-105.468750
7684,-105.468750
7685,-105.468750
7686,-105.468750
7687,-105.468750
7688,-105.468750
7689,-105.468750
7690,-105.468750
7691,-105.468750
7692,-105.468750
7693,-109.375000
7694,-105.468750
7695,-109.375000
7696,-109.375000
7697,-109.375000
7698,-109.375000
7699,-109.375000
7700,-109.375000
7701,-109.375000
7702,-109.375000
7703,-109.375000
7704,-109.375000
7705,-109.375000
7706,-109.375000
7707,-113.281250
7708,-109.375000
7709,-109.375000
7710,-109.375000
7711,-109.375000
7712,-109.375000
7713,-113.281250
7714,-109.375000
7715,-109.375000
7716,-113.281250
7717,-113.281250
7718,-113.281250
7719,-113.281250
7720,-113.281250
7721,-113.281250
7722,-113.281250
7723,-113.281250
7724,-113.281250
7725,-113.281250
7726,-113.281250
7727,-113.281250
7728,-113.281250
7729,-113.281250
7730,-113.281250
7731,-113.281250
7732,-113.281250
7733,-113.281250
7734,-113.281250
7735,-113.281250
7736,-113.281250
7737,-113.281250
7738,-113.281250
7739,-113.281250
7740,-113.281250
7741,-113.281250
7742,-113.281250
7743,-113.281250
7744,-113.281250
7745,-113.281250
7746,-113.281250
7747,-113.281250
7748,-113.281250
7749,-113.281250
7750,-113.281250
7751,-113.281250
7752,-113.281250
7753,-113.281250
7754,-113.281250
7755,-113.281250
7756,-113.281250
7757,-113.281250
7758,-113.281250
7759,-113.281250
7760,-113.281250
7761,-113.281250
7762,-113.281250
7763,-113.281250
7764,-113.281250
7765,-113.281250
7766,-113.281250
7767,-113.281250
7768,-113.281250
7769,-113.281250
7770,-113.281250
7771,-113.281250
7772,-113.281250
7773,-113.281250
7774,-113.281250
7775,-113.281250
7776,-113.281250
7777,-113.281250
7778,-113.281250
7779,-113.281250
7780,-109.375000
7781,-109.375000
7782,-109.375000
7783,-109.375000
7784,-109.375000
7785,-109.375000
7786,-109.375000
7787,-109.375000
7788,-109.375000
7789,-109.375000
7790,-109.375000
7791,-109.375000
7792,-109.375000
7793,-109.375000
7794,-109.375000
7795,-109.375000
7796,-109.375000
7797,-109.375000
7798,-109.375000
7799,-105.468750
7800,-105.468750
7801,-105.468750
7802,-105.468750
7803,-105.468750
7804,-105.468750
7805,-105.468750
7806,-105.468750
7807,-105.468750
7808,-105.468750
7809,-105.468750
7810,-105.468750
7811,-105.468750
7812,-105.468750
7813,-105.468750
7814,-105.468750
7815,-101.562500
7816,-101.562500
7817,-101.562500
7818,-101.562500
7819,-101.562500
7820,-101.562500
7821,-101.562500
7822,-101.562500
7823,-101.562500
7824,-101.562500
7825,-101.562500
7826,-97.656250
7827,-97.656250
7828,-97.656250
7829,-97.656250
7830,-97.656250
7831,-97.656250
7832,-97.656250
7833,-97.656250
7834,-97.656250
7835,-101.562500
7836,-97.656250
7837,-97.656250
7838,-97.656250
7839,-93.750000
7840,-93.750000
7841,-93.750000
7842,-93.750000
7843,-93.750000
7844,-93.750000
7845,-93.750000
7846,-93.750000
7847,-89.843750
7848,-89.843750
7849,-89.843750
7850,-93.750000
7851,-89.843750
7852,-89.843750
7853,-89.843750
7854,-89.843750
7855,-89.843750
7856,-85.937500
7857,-85.937500
7858,-85.937500
7859,-85.937500
7860,-85.937500
7861,-82.031250
7862,-85.937500
7863,-85.937500
7864,-82.031250
7865,-82.031250
7866,-82.031250
7867,-82.031250
7868,-82.031250
7869,-82.031250
7870,-82.031250
7871,-78.125000
7872,-82.031250
7873,-82.031250
7874,-78.125000
7875,-78.125000
7876,-78.125000
7877,-78.125000
7878,-78.125000
7879,-78.125000
7880,-78.125000
7881,-74.218750
7882,-74.218750
7883,-74.218750
7884,-74.218750
7885,-74.218750
7886,-74.218750
7887,-74.218750
7888,-70.312500
7889,-70.312500
7890,-70.312500
7891,-70.312500
7892,-70.312500
7893,-70.312500
7894,-70.312500
7895,-66.406250
7896,-66.406250
7897,-66.406250
7898,-66.406250
7899,-66.406250
7900,-66.406250
7901,-62.500000
7902,-62.500000
7903,-62.500000
7904,-62.500000
7905,-62.500000
7906,-62.500000
7907,-62.500000
7908,-58.593750
7909,-58.593750
7910,-58.593750
7911,-58.593750
7912,-58.593750
7913,-58.593750
7914,-58.593750
7915,-58.593750
7916,-58.593750
7917,-54.687500
7918,-54.687500
7919,-54.687500
7920,-54.687500
7921,-54.687500
7922,-54.687500
7923,-50.781250
7924,-50.781250
7925,-50.781250
7926,-50.781250
7927,-50.781250
7928,-50.781250
7929,-46.875000
7930,-46.875000
7931,-46.875000
7932,-46.875000
7933,-46.875000
7934,-46.875000
7935,-46.875000
7936,-42.968750
7937,-42.968750
7938,-42.968750
7939,-42.968750
7940,-42.968750
7941,-42.968750
7942,-39.062500
7943,-39.062500
7944,-39.062500
7945,-39.062500
7946,-39.062500
7947,-39.062500
7948,-35.156250
7949,-35.156250
7950,-35.156250
7951,-35.156250
7952,-35.156250
7953,-35.156250
7954,-31.250000
7955,-31.250000
7956,-31.250000
7957,-31.250000
7958,-31.250000
7959,-31.250000
7960,-27.343750
7961,-27.343750
7962,-27.343750
7963,-27.343750
7964,-27.343750
7965,-27.343750
7966,-27.343750
7967,-23.437500
7968,-23.437500
7969,-23.437500
7970,-23.437500
7971,-23.437500
7972,-19.531250
7973,-19.531250
7974,-19.531250
7975,-19.531250
7976,-19.531250
7977,-19.531250
7978,-15.625000
7979,-15.625000
7980,-15.625000
7981,-15.625000
7982,-15.625000
7983,-15.625000
7984,-15.625000
7985,-15.625000
7986,-11.718750
7987,-11.718750
7988,-11.718750
7989,-11.718750
7990,-11.718750
7991,-7.812500
7992,-7.812500
7993,-7.812500
7994,-7.812500
7995,-7.812500
7996,-7.812500
7997,-7.812500
7998,-3.906250
7999,-3.906250
8000,-3.906250
8001,-3.906250
8002,-3.906250
8003,0.000000
8004,0.000000
8005,0.000000
8006,0.000000
8007,0.000000
8008,0.000000
8009,0.000000
8010,3.906250
8011,3.906250
8012,3.906250
8013,3.906250
8014,3.906250
8015,3.906250
8016,7.812500
8017,7.812500
8018,7.812500
8019,7.812500
8020,7.812500
8021,7.812500
8022,7.812500
8023,11.718750
8024,11.718750
8025,11.718750
8026,11.718750
8027,11.718750
8028,11.718750
8029,15.625000
8030,15.625000
8031,15.625000
8032,15.625000
8033,15.625000
8034,15.625000
8035,15.625000
8036,19.531250
8037,19.531250
8038,19.531250
8039,19.531250
8040,19.531250
8041,19.531250
8042,19.531250
8043,19.531250
8044,23.437500
8045,23.437500
8046,23.437500
8047,23.437500
8048,23.437500
8049,23.437500
8050,23.437500
8051,27.343750
8052,27.343750
8053,27.343750
8054,27.343750
8055,27.343750
8056,27.343750
8057,31.250000
8058,31.250000
8059,31.250000
8060,31.250000
8061,31.250000
8062,31.250000
8063,31.250000
8064,31.250000
8065,35.156250
8066,35.156250
8067,35.156250
8068,35.156250
8069,35.156250
8070,35.156250
8071,35.156250
8072,39.062500
8073,39.062500
8074,39.062500
8075,39.062500
8076,39.062500
8077,39.062500
8078,39.062500
8079,39.062500
8080,42.968750
8081,42.968750
8082,42.968750
8083,42.968750
8084,42.968750
8085,42.968750
8086,46.875000
8087,42.968750
8088,46.875000
8089,46.875000
8090,46.875000
8091,46.875000
8092,46.875000
8093,46.875000
8094,46.875000
8095,46.875000
8096,46.875000
8097,50.781250
8098,50.781250
8099,50.781250
8100,50.781250
8101,50.781250
8102,50.781250
8103,50.781250
8104,54.687500
8105,54.687500
8106,54.687500
8107,54.687500
8108,54.687500
8109,54.687500
8110,54.687500
8111,54.687500
8112,54.687500
8113,54.687500
8114,58.593750
8115,58.593750
8116,58.593750
8117,58.593750
8118,58.593750
8119,58.593750
8120,58.593750
8121,58.593750
8122,58.593750
8123,62.500000
8124,62.500000
8125,62.500000
8126,62.500000
8127,62.500000
8128,62.500000
8129,62.500000
8130,62.500000
8131,62.500000
8132,62.500000
8133,66.406250
8134,62.500000
8135,66.406250
8136,66.406250
8137,66.406250
8138,66.406250
8139,66.406250
8140,66.406250
8141,66.406250
8142,66.406250
8143,66.406250
8144,66.406250
8145,70.312500
8146,66.406250
8147,66.406250
8148,70.312500
8149,70.312500
8150,70.312500
8151,70.312500
8152,70.312500
8153,70.312500
8154,70.312500
8155,70.312500
8156,70.312500
8157,70.312500
8158,74.218750
8159,74.218750
8160,74.218750
8161,74.218750
8162,74.218750
8163,74.218750
8164,74.218750
8165,70.312500
8166,74.218750
8167,74.218750
8168,74.218750
8169,74.218750
8170,74.218750
8171,74.218750
8172,74.218750
8173,74.218750
8174,78.125000
8175,74.218750
8176,78.125000
8177,78.125000
8178,78.125000
8179,78.125000
8180,78.125000
8181,78.125000
8182,78.125000
8183,78.125000
8184,78.125000
8185,78.125000
8186,78.125000
8187,78.125000
8188,78.125000
8189,78.125000
8190,78.125000
8191,78.125000
8192,78.125000
8193,78.125000
8194,78.125000
8195,78.125000
8196,78.125000
8197,78.125000
8198,82.031250
8199,82.031250
8200,82.031250
8201,78.125000
8202,82.031250
8203,82.031250
8204,78.125000
8205,82.031250
8206,82.031250
8207,78.125000
8208,85.937500
8209,82.031250
8210,78.125000
8211,82.031250
8212,82.031250
8213,78.125000
8214,82.031250
8215,82.031250
8216,82.031250
8217,82.031250
8218,82.031250
8219,82.031250
8220,82.031250
8221,82.031250
8222,82.031250
8223,82.031250
8224,82.031250
8225,82.031250
8226,82.031250
8227,82.031250
8228,82.031250
8229,82.031250
8230,82.031250
8231,82.031250
8232,82.031250
8233,82.031250
8234,82.031250
8235,82.031250
8236,82.031250
8237,82.031250
8238,82.031250
8239,82.031250
8240,85.937500
8241,85.937500
8242,85.937500
8243,82.031250
8244,82.031250
8245,82.031250
8246,85.937500
8247,82.031250
8248,85.937500
8249,82.031250
8250,82.031250
8251,82.031250
8252,82.031250
8253,82.031250
8254,82.031250
8255,82.031250
8256,82.031250
8257,82.031250
8258,82.031250
8259,82.031250
8260,82.031250
8261,82.031250
8262,82.031250
8263,82.031250
8264,82.031250
8265,82.031250
8266,82.031250
8267,82.031250
8268,82.031250
8269,82.031250
8270,82.031250
8271,82.031250
8272,82.031250
8273,82.031250
8274,82.031250
8275,82.031250
8276,82.031250
8277,82.031250
8278,82.031250
8279,82.031250
8280,82.031250
8281,82.031250
8282,82.031250
8283,82.031250
8284,82.031250
8285,82.031250
8286,78.125000
8287,82.031250
8288,78.125000
8289,78.125000
8290,78.125000
8291,78.125000
8292,78.125000
8293,78.125000
8294,78.125000
8295,78.125000
8296,78.125000
8297,78.125000
8298,78.125000
8299,78.125000
8300,78.125000
8301,78.125000
8302,78.125000
8303,78.125000
8304,78.125000
8305,78.125000
8306,74.218750
8307,78.125000
8308,74.218750
8309,74.218750
8310,74.218750
8311,74.218750
8312,74.218750
8313,74.218750
8314,74.218750
8315,74.218750
8316,74.218750
8317,74.218750
8318,74.218750
8319,74.218750
8320,74.218750
8321,74.218750
8322,74.218750
8323,70.312500
8324,70.312500
8325,70.312500
8326,70.312500
8327,70.312500
8328,70.312500
8329,70.312500
8330,70.312500
8331,70.312500
8332,70.312500
8333,70.312500
8334,70.312500
8335,70.312500
8336,70.312500
8337,70.312500
8338,66.406250
8339,66.406250
8340,70.312500
8341,66.406250
8342,66.406250
8343,66.406250
8344,66.406250
8345,66.406250
8346,66.406250
8347,66.406250
8348,66.406250
8349,66.406250
8350,66.406250
8351,62.500000
8352,62.500000
8353,62.500000
8354,62.500000
8355,62.500000
8356,62.500000
8357,62.500000
8358,62.500000
8359,62.500000
8360,62.500000
8361,58.593750
8362,58.593750
8363,58.593750
8364,58.593750
8365,58.593750
8366,58.593750
8367,58.593750
8368,58.593750
8369,54.687500
8370,54.687500
8371,54.687500
8372,54.687500
8373,54.687500
8374,54.687500
8375,54.687500
8376,54.687500
8377,54.687500
8378,54.687500
8379,54.687500
8380,50.781250
8381,50.781250
8382,50.781250
8383,50.781250
8384,50.781250
8385,50.781250
8386,50.781250
8387,46.875000
8388,50.781250
8389,46.875000
8390,46.875000
8391,46.875000
8392,46.875000
8393,46.875000
8394,46.875000
8395,42.968750
8396,46.875000
8397,42.968750
8398,42.968750
8399,42.968750
8400,42.968750
8401,42.968750
8402,42.968750
8403,42.968750
8404,42.968750
8405,39.062500
8406,39.062500
8407,39.062500
8408,39.062500
8409,39.062500
8410,39.062500
8411,39.062500
8412,35.156250
8413,35.156250
8414,35.156250
8415,35.156250
8416,35.156250
8417,35.156250
8418,35.156250
8419,31.250000
8420,31.250000
8421,31.250000
8422,31.250000
8423,31.250000
8424,31.250000
8425,31.250000
8426,27.343750
8427,27.343750
8428,27.343750
8429,27.343750
8430,27.343750
8431,27.343750
8432,27.343750
8433,27.343750
8434,23.437500
8435,23.437500
8436,23.437500
8437,23.437500
8438,23.437500
8439,23.437500
8440,19.531250
8441,19.531250
8442,19.531250
8443,19.531250
8444,19.531250
8445,19.531250
8446,19.531250
8447,19.531250
8448,15.625000
8449,15.625000
8450,15.625000
8451,15.625000
8452,11.718750
8453,11.718750
8454,11.718750
8455,11.718750
8456,11.718750
8457,11.718750
8458,11.718750
8459,11.718750
8460,11.718750
8461,7.812500
8462,7.812500
8463,7.812500
8464,7.812500
8465,7.812500
8466,3.906250
8467,3.906250
8468,3.906250
8469,3.906250
8470,3.906250
8471,3.906250
8472,3.906250
8473,0.000000
8474,0.000000
8475,0.000000
8476,0.000000
8477,0.000000
8478,-3.906250
8479,-3.906250
8480,-3.906250
8481,-3.906250
8482,-3.906250
8483,-3.906250
8484,-3.906250
8485,-7.812500
8486,-7.812500
8487,-7.812500
8488,-7.812500
8489,-7.812500
8490,-7.812500
8491,-11.718750
8492,-11.718750
8493,-11.718750
8494,-11.718750
8495,-11.718750
8496,-11.718750
8497,-11.718750
8498,-11.718750
8499,-15.625000
8500,-15.625000
8501,-15.625000
8502,-15.625000
8503,-19.531250
8504,-19.531250
8505,-19.531250
8506,-19.531250
8507,-19.531250
8508,-19.531250
8509,-19.531250
8510,-19.531250
8511,-23.437500
8512,-23.437500
8513,-23.437500
8514,-23.437500
8515,-27.343750
8516,-27.343750
8517,-27.343750
8518,-27.343750
8519,-27.343750
8520,-27.343750
8521,-27.343750
8522,-31.250000
8523,-31.250000
8524,-31.250000
8525,-31.250000
8526,-31.250000
8527,-31.250000
8528,-35.156250
8529,-35.156250
8530,-35.156250
8531,-35.156250
8532,-35.156250
8533,-35.156250
8534,-39.062500
8535,-39.062500
8536,-39.062500
8537,-39.062500
8538,-39.062500
8539,-39.062500
8540,-39.062500
8541,-42.968750
8542,-42.968750
8543,-42.968750
8544,-42.968750
8545,-42.968750
8546,-42.968750
8547,-46.875000
8548,-46.875000
8549,-46.875000
8550,-46.875000
8551,-46.875000
8552,-46.875000
8553,-50.781250
8554,-50.781250
8555,-50.781250
8556,-50.781250
8557,-50.781250
8558,-50.781250
8559,-54.687500
8560,-54.687500
8561,-54.687500
8562,-54.687500
8563,-54.687500
8564,-54.687500
8565,-54.687500
8566,-58.593750
8567,-58.593750
8568,-58.593750
8569,-58.593750
8570,-58.593750
8571,-58.593750
8572,-58.593750
8573,-62.500000
8574,-62.500000
8575,-62.500000
8576,-62.500000
8577,-62.500000
8578,-62.500000
8579,-66.406250
8580,-66.406250
8581,-66.406250
8582,-66.406250
8583,-66.406250
8584,-66.406250
8585,-66.406250
8586,-70.312500
8587,-70.312500
8588,-70.312500
8589,-70.312500
8590,-70.312500
8591,-70.312500
8592,-70.312500
8593,-74.218750
8594,-74.218750
8595,-74.218750
8596,-74.218750
8597,-74.218750
8598,-74.218750
8599,-78.125000
8600,-78.125000
8601,-78.125000
8602,-78.125000
8603,-78.125000
8604,-78.125000
8605,-78.125000
8606,-78.125000
8607,-78.125000
8608,-78.125000
8609,-82.031250
8610,-82.031250
8611,-82.031250
8612,-82.031250
8613,-82.031250
8614,-82.031250
8615,-82.031250
8616,-82.031250
8617,-85.937500
8618,-85.937500
8619,-85.937500
8620,-85.937500
8621,-85.937500
8622,-85.937500
8623,-85.937500
8624,-85.937500
8625,-89.843750
8626,-89.843750
8627,-89.843750
8628,-89.843750
8629,-89.843750
8630,-89.843750
8631,-89.843750
8632,-89.843750
8633,-89.843750
8634,-93.750000
8635,-93.750000
8636,-93.750000
8637,-93.750000
8638,-93.750000
8639,-93.750000
8640,-93.750000
8641,-93.750000
8642,-93.750000
8643,-93.750000
8644,-93.750000
8645,-97.656250
8646,-97.656250
8647,-97.656250
8648,-97.656250
8649,-97.656250
8650,-97.656250
8651,-97.656250
8652,-97.656250
8653,-97.656250
8654,-97.656250
8655,-101.562500
8656,-101.562500
8657,-101.562500
8658,-101.562500
8659,-101.562500
8660,-101.562500
8661,-101.562500
8662,-101.562500
8663,-101.562500
8664,-101.562500
8665,-101.562500
8666,-101.562500
8667,-105.468750
8668,-105.468750
8669,-105.468750
8670,-105.468750
8671,-105.468750
8672,-105.468750
8673,-105.468750
8674,-105.468750
8675,-105.468750
8676,-105.468750
8677,-105.468750
8678,-105.468750
8679,-105.468750
8680,-109.375000
8681,-109.375000
8682,-105.468750
8683,-109.375000
8684,-109.375000
8685,-109.375000
8686,-109.375000
8687,-109.375000
8688,-109.375000
8689,-109.375000
8690,-109.375000
8691,-109.375000
8692,-109.375000
8693,-109.375000
8694,-109.375000
8695,-109.375000
8696,-109.375000
8697,-113.281250
8698,-109.375000
8699,-113.281250
8700,-113.281250
8701,-113.281250
8702,-113.281250
8703,-113.281250
8704,-113.281250
8705,-113.281250
8706,-113.281250
8707,-113.281250
8708,-113.281250
8709,-113.281250
8710,-113.281250
8711,-113.281250
8712,-113.281250
8713,-113.281250
8714,-113.281250
8715,-113.281250
8716,-113.281250
8717,-113.281250
8718,-113.281250
8719,-113.281250
8720,-113.281250
8721,-113.281250
8722,-113.281250
8723,-113.281250
8724,-113.281250
8725,-113.281250
8726,-113.281250
8727,-113.281250
8728,-113.281250
8729,-113.281250
8730,-113.281250
8731,-113.281250
8732,-113.281250
8733,-113.281250
8734,-117.187500
8735,-117.187500
8736,-113.281250
8737,-113.281250
8738,-113.281250
8739,-113.281250
8740,-113.281250
8741,-113.281250
8742,-113.281250
8743,-113.281250
8744,-113.281250
8745,-113.281250
8746,-113.281250
8747,-113.281250
8748,-113.281250
8749,-113.281250
8750,-113.281250
8751,-113.281250
8752,-113.281250
8753,-113.281250
8754,-113.281250
8755,-113.281250
8756,-113.281250
8757,-113.281250
8758,-113.281250
8759,-113.281250
8760,-113.281250
8761,-113.281250
8762,-113.281250
8763,-113.281250
8764,-113.281250
8765,-113.281250
8766,-113.281250
8767,-113.281250
8768,-113.281250
8769,-113.281250
8770,-113.281250
8771,-113.281250
8772,-109.375000
8773,-109.375000
8774,-109.375000
8775,-109.375000
8776,-109.375000
8777,-109.375000
8778,-109.375000
8779,-109.375000
8780,-109.375000
8781,-109.375000
8782,-109.375000
8783,-109.375000
8784,-109.375000
8785,-109.375000
8786,-109.375000
8787,-109.375000
8788,-109.375000
8789,-109.375000
8790,-109.375000
8791,-105.468750
8792,-109.375000
8793,-105.468750
8794,-105.468750
8795,-105.468750
8796,-105.468750
8797,-105.468750
8798,-105.468750
8799,-105.468750
8800,-105.468750
8801,-105.468750
8802,-105.468750
8803,-105.468750
8804,-105.468750
8805,-105.468750
8806,-101.562500
8807,-105.468750
8808,-101.562500
8809,-101.562500
8810,-101.562500
8811,-101.562500
8812,-101.562500
8813,-101.562500
8814,-101.562500
8815,-101.562500
8816,-101.562500
8817,-101.562500
8818,-101.562500
8819,-97.656250
8820,-97.656250
8821,-97.656250
8822,-97.656250
8823,-97.656250
8824,-97.656250
8825,-97.656250
8826,-97.656250
8827,-97.656250
8828,-97.656250
8829,-97.656250
8830,-97.656250
8831,-93.750000
8832,-93.750000
8833,-93.750000
8834,-93.750000
8835,-93.750000
8836,-93.750000
8837,-93.750000
8838,-93.750000
8839,-93.750000
8840,-89.843750
8841,-89.843750
8842,-89.843750
8843,-89.843750
8844,-89.843750
8845,-89.843750
8846,-89.843750
8847,-89.843750
8848,-85.937500
8849,-85.937500
8850,-85.937500
8851,-85.937500
8852,-85.937500
8853,-85.937500
8854,-85.937500
8855,-85.937500
8856,-85.937500
8857,-82.031250
8858,-82.031250
8859,-82.031250
8860,-82.031250
8861,-82.031250
8862,-82.031250
8863,-82.031250
8864,-78.125000
8865,-78.125000
8866,-78.125000
8867,-78.125000
8868,-78.125000
8869,-78.125000
8870,-78.125000
8871,-78.125000
8872,-74.218750
8873,-74.218750
8874,-74.218750
8875,-74.218750
8876,-74.218750
8877,-74.218750
8878,-74.218750
8879,-74.218750
8880,-70.312500
8881,-70.312500
8882,-70.312500
8883,-70.312500
8884,-70.312500
8885,-70.312500
8886,-66.406250
8887,-66.406250
8888,-66.406250
8889,-66.406250
8890,-66.406250
8891,-66.406250
8892,-66.406250
8893,-66.406250
8894,-62.500000
8895,-62.500000
8896,-62.500000
8897,-62.500000
8898,-62.500000
8899,-62.500000
8900,-62.500000
8901,-58.593750
8902,-58.593750
8903,-58.593750
8904,-58.593750
8905,-58.593750
8906,-54.687500
8907,-54.687500
8908,-54.687500
8909,-54.687500
8910,-54.687500
8911,-54.687500
8912,-54.687500
8913,-50.781250
8914,-50.781250
8915,-50.781250
8916,-50.781250
8917,-50.781250
8918,-50.781250
8919,-50.781250
8920,-46.875000
8921,-46.875000
8922,-46.875000
8923,-46.875000
8924,-46.875000
8925,-46.875000
8926,-42.968750
8927,-42.968750
8928,-42.968750
8929,-42.968750
8930,-42.968750
8931,-42.968750
8932,-39.062500
8933,-39.062500
8934,-39.062500
8935,-39.062500
8936,-39.062500
8937,-39.062500
8938,-39.062500
8939,-35.156250
8940,-35.156250
8941,-35.156250
8942,-35.156250
8943,-35.156250
8944,-35.156250
8945,-35.156250
8946,-31.250000
8947,-31.250000
8948,-31.250000
8949,-31.250000
8950,-31.250000
8951,-27.343750
8952,-27.343750
8953,-27.343750
8954,-27.343750
8955,-27.343750
8956,-27.343750
8957,-27.343750
8958,-23.437500
8959,-23.437500
8960,-23.437500
8961,-23.437500
8962,-23.437500
8963,-19.531250
8964,-19.531250
8965,-19.531250
8966,-19.531250
8967,-19.531250
8968,-19.531250
8969,-19.531250
8970,-15.625000
8971,-15.625000
8972,-15.625000
8973,-15.625000
8974,-15.625000
8975,-15.625000
8976,-11.718750
8977,-15.625000
8978,-11.718750
8979,-11.718750
8980,-11.718750
8981,-11.718750
8982,-7.812500
8983,-7.812500
8984,-7.812500
8985,-7.812500
8986,-7.812500
8987,-7.812500
8988,-3.906250
8989,-3.906250
8990,-3.906250
8991,-3.906250
8992,-3.906250
8993,-3.906250
8994,0.000000
8995,0.000000
8996,0.000000
8997,0.000000
8998,0.000000
8999,0.000000
9000,0.000000
9001,3.906250
9002,3.906250
9003,3.906250
9004,3.906250
9005,3.906250
9006,3.906250
9007,3.906250
9008,7.812500
9009,7.812500
9010,7.812500
9011,7.812500
9012,7.812500
9013,11.718750
9014,11.718750
9015,11.718750
9016,11.718750
9017,11.718750
9018,11.718750
9019,11.718750
9020,15.625000
9021,15.625000
9022,15.625000
9023,15.625000
9024,15.625000
9025,15.625000
9026,15.625000
9027,19.531250
9028,19.531250
9029,19.531250
9030,19.531250
9031,19.531250
9032,23.437500
9033,23.437500
9034,23.437500
9035,23.437500
9036,23.437500
9037,23.437500
9038,23.437500
9039,23.437500
9040,27.343750
9041,27.343750
9042,27.343750
9043,27.343750
9044,27.343750
9045,27.343750
9046,27.343750
9047,31.250000
9048,31.250000
9049,31.250000
9050,31.250000
9051,31.250000
9052,31.250000
9053,31.250000
9054,35.156250
9055,35.156250
9056,35.156250
9057,35.156250
9058,35.156250
9059,35.156250
9060,35.156250
9061,35.156250
9062,39.062500
9063,39.062500
9064,39.062500
9065,39.062500
9066,39.062500
9067,39.062500
9068,39.062500
9069,39.062500
9070,42.968750
9071,42.968750
9072,42.968750
9073,42.968750
9074,42.968750
9075,42.968750
9076,42.968750
9077,42.968750
9078,46.875000
9079,46.875000
9080,46.875000
9081,46.875000
9082,46.875000
9083,46.875000
9084,46.875000
9085,46.875000
9086,50.781250
9087,46.875000
9088,50.781250
9089,50.781250
9090,50.781250
9091,50.781250
9092,50.781250
9093,50.781250
9094,50.781250
9095,50.781250
9096,54.687500
9097,54.687500
9098,54.687500
9099,54.687500
9100,54.687500
9101,54.687500
9102,54.687500
9103,54.687500
9104,58.593750
9105,58.593750
9106,58.593750
9107,58.593750
9108,58.593750
9109,58.593750
9110,58.593750
9111,58.593750
9112,58.593750
9113,58.593750
9114,58.593750
9115,62.500000
9116,62.500000
9117,62.500000
9118,62.500000
9119,62.500000
9120,62.500000
9121,62.500000
9122,62.500000
9123,62.500000
9124,62.500000
9125,66.406250
9126,66.406250
9127,62.500000
9128,66.406250
9129,66.406250
9130,66.406250
9131,66.406250
9132,66.406250
9133,66.406250
9134,66.406250
9135,66.406250
9136,66.406250
9137,70.312500
9138,70.312500
9139,70.312500
9140,70.312500
9141,70.312500
9142,70.312500
9143,70.312500
9144,70.312500
9145,70.312500
9146,70.312500
9147,70.312500
9148,70.312500
9149,70.312500
9150,70.312500
9151,74.218750
9152,74.218750
9153,74.218750
9154,74.218750
9155,74.218750
9156,74.218750
9157,74.218750
9158,74.218750
9159,74.218750
9160,74.218750
9161,74.218750
9162,74.218750
9163,74.218750
9164,74.218750
9165,74.218750
9166,74.218750
9167,74.218750
9168,78.125000
9169,78.125000
9170,78.125000
9171,78.125000
9172,78.125000
9173,78.125000
9174,78.125000
9175,78.125000
9176,78.125000
9177,78.125000
9178,78.125000
9179,78.125000
9180,78.125000
9181,78.125000
9182,78.125000
9183,78.125000
9184,78.125000
9185,78.125000
9186,78.125000
9187,78.125000
9188,78.125000
9189,82.031250
9190,82.031250
9191,82.031250
9192,78.125000
9193,82.031250
9194,78.125000
9195,82.031250
9196,82.031250
9197,82.031250
9198,82.031250
9199,82.031250
9200,82.031250
9201,82.031250
9202,82.031250
9203,82.031250
9204,82.031250
9205,82.031250
9206,82.031250
9207,82.031250
9208,82.031250
9209,82.031250
9210,82.031250
9211,82.031250
9212,82.031250
9213,82.031250
9214,82.031250
9215,82.031250
9216,82.031250
9217,82.031250
9218,82.031250
9219,82.031250
9220,82.031250
9221,82.031250
9222,82.031250
9223,82.031250
9224,82.031250
9225,82.031250
9226,82.031250
9227,82.031250
9228,82.031250
9229,82.031250
9230,82.031250
9231,82.031250
9232,82.031250
9233,82.031250
9234,82.031250
9235,82.031250
9236,82.031250
9237,82.031250
9238,82.031250
9239,82.031250
9240,82.031250
9241,82.031250
9242,82.031250
9243,82.031250
9244,82.031250
9245,82.031250
9246,82.031250
9247,82.031250
9248,82.031250
9249,82.031250
9250,82.031250
9251,82.031250
9252,82.031250
9253,82.031250
9254,82.031250
9255,82.031250
9256,82.031250
9257,82.031250
9258,82.031250
9259,82.031250
9260,82.031250
9261,82.031250
9262,82.031250
9263,82.031250
9264,82.031250
9265,82.031250
9266,82.031250
9267,82.031250
9268,82.031250
9269,82.031250
9270,82.031250
9271,82.031250
9272,82.031250
9273,82.031250
9274,78.125000
9275,78.125000
9276,78.125000
9277,78.125000
9278,78.125000
9279,78.125000
9280,78.125000
9281,78.125000
9282,78.125000
9283,78.125000
9284,78.125000
9285,78.125000
9286,78.125000
9287,78.125000
9288,78.125000
9289,78.125000
9290,78.125000
9291,78.125000
9292,78.125000
9293,78.125000
9294,74.218750
9295,74.218750
9296,74.218750
9297,74.218750
9298,74.218750
9299,74.218750
9300,74.218750
9301,74.218750
9302,74.218750
9303,74.218750
9304,74.218750
9305,74.218750
9306,74.218750
9307,74.218750
9308,74.218750
9309,74.218750
9310,74.218750
9311,74.218750
9312,74.218750
9313,70.312500
9314,70.312500
9315,70.312500
9316,70.312500
9317,70.312500
9318,70.312500
9319,70.312500
9320,70.312500
9321,70.312500
9322,70.312500
9323,70.312500
9324,70.312500
9325,66.406250
9326,66.406250
9327,66.406250
9328,66.406250
9329,66.406250
9330,66.406250
9331,66.406250
9332,66.406250
9333,66.406250
9334,62.500000
9335,66.406250
9336,66.406250
9337,66.406250
9338,62.500000
9339,62.500000
9340,62.500000
9341,62.500000
9342,62.500000
9343,62.500000
9344,62.500000
9345,62.500000
9346,58.593750
9347,62.500000
9348,58.593750
9349,58.593750
9350,58.593750
9351,58.593750
9352,58.593750
9353,58.593750
9354,58.593750
9355,58.593750
9356,58.593750
9357,58.593750
9358,54.687500
9359,54.687500
9360,54.687500
9361,54.687500
9362,54.687500
9363,54.687500
9364,54.687500
9365,54.687500
9366,54.687500
9367,50.781250
9368,50.781250
9369,50.781250
9370,50.781250
9371,50.781250
9372,50.781250
9373,50.781250
9374,50.781250
9375,50.781250
9376,46.875000
9377,46.875000
9378,46.875000
9379,46.875000
9380,46.875000
9381,46.875000
9382,46.875000
9383,46.875000
9384,42.968750
9385,42.968750
9386,42.968750
9387,42.968750
9388,42.968750
9389,42.968750
9390,42.968750
9391,42.968750
9392,42.968750
9393,39.062500
9394,39.062500
9395,39.062500
9396,39.062500
9397,39.062500
9398,39.062500
9399,35.156250
9400,35.156250
9401,35.156250
9402,35.156250
9403,35.156250
9404,35.156250
9405,35.156250
9406,35.156250
9407,31.250000
9408,35.156250
9409,31.250000
9410,31.250000
9411,31.250000
9412,31.250000
9413,31.250000
9414,27.343750
9415,27.343750
9416,27.343750
9417,27.343750
9418,27.343750
9419,27.343750
9420,27.343750
9421,27.343750
9422,23.437500
9423,23.437500
9424,23.437500
9425,23.437500
9426,23.437500
9427,23.437500
9428,23.437500
9429,19.531250
9430,19.531250
9431,19.531250
9432,19.531250
9433,19.531250
9434,19.531250
9435,15.625000
9436,15.625000
9437,15.625000
9438,15.625000
9439,15.625000
9440,15.625000
9441,11.718750
9442,15.625000
9443,11.718750
9444,11.718750
9445,11.718750
9446,11.718750
9447,11.718750
9448,11.718750
9449,7.812500
9450,7.812500
9451,7.812500
9452,7.812500
9453,7.812500
9454,7.812500
9455,3.906250
9456,3.906250
9457,3.906250
9458,3.906250
9459,3.906250
9460,3.906250
9461,0.000000
9462,0.000000
9463,0.000000
9464,0.000000
9465,0.000000
9466,0.000000
9467,0.000000
9468,-3.906250
9469,-3.906250
9470,-3.906250
9471,-3.906250
9472,-3.906250
9473,-7.812500
9474,-7.812500
9475,-7.812500
9476,-7.812500
9477,-7.812500
9478,-7.812500
9479,-7.812500
9480,-11.718750
9481,-11.718750
9482,-11.718750
9483,-11.718750
9484,-11.718750
9485,-11.718750
9486,-15.625000
9487,-15.625000
9488,-15.625000
9489,-15.625000
9490,-15.625000
9491,-19.531250
9492,-19.531250
9493,-19.531250
9494,-19.531250
9495,-19.531250
9496,-19.531250
9497,-23.437500
9498,-23.437500
9499,-23.437500
9500,-23.437500
9501,-23.437500
9502,-23.437500
9503,-23.437500
9504,-27.343750
9505,-27.343750
9506,-27.343750
9507,-27.343750
9508,-27.343750
9509,-31.250000
9510,-31.250000
9511,-31.250000
9512,-31.250000
9513,-31.250000
9514,-31.250000
9515,-31.250000
9516,-35.156250
9517,-35.156250
9518,-35.156250
9519,-35.156250
9520,-35.156250
9521,-35.156250
9522,-39.062500
9523,-39.062500
9524,-39.062500
9525,-39.062500
9526,-39.062500
9527,-39.062500
9528,-42.968750
9529,-42.968750
9530,-42.968750
9531,-42.968750
9532,-42.968750
9533,-42.968750
9534,-42.968750
9535,-46.875000
9536,-46.875000
9537,-46.875000
9538,-46.875000
9539,-46.875000
9540,-46.875000
9541,-50.781250
9542,-50.781250
9543,-50.781250
9544,-50.781250
9545,-50.781250
9546,-50.781250
9547,-54.687500
9548,-54.687500
9549,-54.687500
9550,-54.687500
9551,-54.687500
9552,-54.687500
9553,-54.687500
9554,-58.593750
9555,-58.593750
9556,-58.593750
9557,-58.593750
9558,-58.593750
9559,-58.593750
9560,-62.500000
9561,-58.593750
9562,-62.500000
9563,-62.500000
9564,-62.500000
9565,-62.500000
9566,-62.500000
9567,-66.406250
9568,-66.406250
9569,-66.406250
9570,-66.406250
9571,-66.406250
9572,-66.406250
9573,-66.406250
9574,-70.312500
9575,-70.312500
9576,-70.312500
9577,-70.312500
9578,-70.312500
9579,-70.312500
9580,-70.312500
9581,-70.312500
9582,-74.218750
9583,-74.218750
9584,-74.218750
9585,-74.218750
9586,-74.218750
9587,-78.125000
9588,-74.218750
9589,-78.125000
9590,-78.125000
9591,-78.125000
9592,-78.125000
9593,-78.125000
9594,-78.125000
9595,-78.125000
9596,-78.125000
9597,-82.031250
9598,-82.031250
9599,-82.031250
9600,-82.031250
9601,-82.031250
9602,-82.031250
9603,-82.031250
9604,-85.937500
9605,-85.937500
9606,-85.937500
9607,-85.937500
9608,-85.937500
9609,-85.937500
9610,-85.937500
9611,-85.937500
9612,-89.843750
9613,-89.843750
9614,-89.843750
9615,-89.843750
9616,-89.843750
9617,-89.843750
9618,-89.843750
9619,-89.843750
9620,-93.750000
9621,-93.750000
9622,-93.750000
9623,-93.750000
9624,-93.750000
9625,-93.750000
9626,-93.750000
9627,-93.750000
9628,-93.750000
9629,-93.750000
9630,-93.750000
9631,-93.750000
9632,-97.656250
9633,-97.656250
9634,-97.656250
9635,-97.656250
9636,-97.656250
9637,-97.656250
9638,-97.656250
9639,-97.656250
9640,-97.656250
9641,-97.656250
9642,-101.562500
9643,-101.562500
9644,-101.562500
9645,-101.562500
9646,-101.562500
9647,-101.562500
9648,-101.562500
9649,-101.562500
9650,-101.562500
9651,-105.468750
9652,-101.562500
9653,-105.468750
9654,-105.468750
9655,-105.468750
9656,-105.468750
9657,-105.468750
9658,-105.468750
9659,-105.468750
9660,-105.468750
9661,-105.468750
9662,-105.468750
9663,-105.468750
9664,-105.468750
9665,-105.468750
9666,-109.375000
9667,-109.375000
9668,-109.375000
9669,-109.375000
9670,-109.375000
9671,-109.375000
9672,-109.375000
9673,-109.375000
9674,-109.375000
9675,-109.375000
9676,-109.375000
9677,-109.375000
9678,-109.375000
9679,-109.375000
9680,-109.375000
9681,-109.375000
9682,-109.375000
9683,-113.281250
9684,-109.375000
9685,-113.281250
9686,-113.281250
9687,-113.281250
9688,-113.281250
9689,-113.281250
9690,-113.281250
9691,-113.281250
9692,-113.281250
9693,-113.281250
9694,-113.281250
9695,-113.281250
9696,-113.281250
9697,-113.281250
9698,-113.281250
9699,-113.281250
9700,-113.281250
9701,-113.281250
9702,-113.281250
9703,-113.281250
9704,-113.281250
9705,-117.187500
9706,-113.281250
9707,-113.281250
9708,-113.281250
9709,-113.281250
9710,-113.281250
9711,-117.187500
9712,-113.281250
9713,-117.187500
9714,-117.187500
9715,-117.187500
9716,-117.187500
9717,-117.187500
9718,-117.187500
9719,-117.187500
9720,-113.281250
9721,-117.187500
9722,-117.187500
9723,-117.187500
9724,-113.281250
9725,-113.281250
9726,-117.187500
9727,-117.187500
9728,-117.187500
9729,-117.187500
9730,-117.187500
9731,-117.187500
9732,-113.281250
9733,-117.187500
9734,-113.281250
9735,-113.281250
9736,-113.281250
9737,-117.187500
9738,-117.187500
9739,-113.281250
9740,-113.281250
9741,-113.281250
9742,-113.281250
9743,-113.281250
9744,-113.281250
9745,-113.281250
9746,-113.281250
9747,-113.281250
9748,-113.281250
9749,-113.281250
9750,-113.281250
9751,-113.281250
9752,-113.281250
9753,-113.281250
9754,-113.281250
9755,-113.281250
9756,-113.281250
9757,-113.281250
9758,-113.281250
9759,-113.281250
9760,-113.281250
9761,-113.281250
9762,-113.281250
9763,-113.281250
9764,-113.281250
9765,-113.281250
9766,-113.281250
9767,-109.375000
9768,-109.375000
9769,-109.375000
9770,-109.375000
9771,-109.375000
9772,-109.375000
9773,-109.375000
9774,-109.375000
9775,-109.375000
9776,-109.375000
9777,-109.375000
9778,-109.375000
9779,-109.375000
9780,-109.375000
9781,-109.375000
9782,-109.375000
9783,-109.375000
9784,-105.468750
9785,-109.375000
9786,-105.468750
9787,-105.468750
9788,-109.375000
9789,-101.562500
9790,-105.468750
9791,-105.468750
9792,-105.468750
9793,-105.468750
9794,-105.468750
9795,-105.468750
9796,-105.468750
9797,-105.468750
9798,-101.562500
9799,-101.562500
9800,-101.562500
9801,-101.562500
9802,-101.562500
9803,-101.562500
9804,-101.562500
9805,-101.562500
9806,-101.562500
9807,-101.562500
9808,-101.562500
9809,-101.562500
9810,-101.562500
9811,-97.656250
9812,-97.656250
9813,-97.656250
9814,-97.656250
9815,-97.656250
9816,-97.656250
9817,-97.656250
9818,-97.656250
9819,-97.656250
9820,-93.750000
9821,-93.750000
9822,-93.750000
9823,-93.750000
9824,-89.843750
9825,-93.750000
9826,-93.750000
9827,-93.750000
9828,-93.750000
9829,-89.843750
9830,-89.843750
9831,-89.843750
9832,-89.843750
9833,-89.843750
9834,-89.843750
9835,-89.843750
9836,-89.843750
9837,-89.843750
9838,-89.843750
9839,-85.937500
9840,-85.937500
9841,-85.937500
9842,-85.937500
9843,-85.937500
9844,-85.937500
9845,-85.937500
9846,-85.937500
9847,-82.031250
9848,-82.031250
9849,-82.031250
9850,-78.125000
9851,-82.031250
9852,-82.031250
9853,-82.031250
9854,-82.031250
9855,-78.125000
9856,-82.031250
9857,-78.125000
9858,-78.125000
9859,-78.125000
9860,-78.125000
9861,-78.125000
9862,-78.125000
9863,-78.125000
9864,-74.218750
9865,-74.218750
9866,-74.218750
9867,-74.218750
9868,-74.218750
9869,-74.218750
9870,-74.218750
9871,-70.312500
9872,-70.312500
9873,-70.312500
9874,-70.312500
9875,-70.312500
9876,-70.312500
9877,-70.312500
9878,-66.406250
9879,-66.406250
9880,-66.406250
9881,-66.406250
9882,-66.406250
9883,-66.406250
9884,-62.500000
9885,-62.500000
9886,-62.500000
9887,-62.500000
9888,-62.500000
9889,-62.500000
9890,-62.500000
9891,-58.593750
9892,-58.593750
9893,-58.593750
9894,-58.593750
9895,-58.593750
9896,-58.593750
9897,-54.687500
9898,-54.687500
9899,-54.687500
9900,-54.687500
9901,-54.687500
9902,-54.687500
9903,-54.687500
9904,-50.781250
9905,-50.781250
9906,-50.781250
9907,-50.781250
9908,-50.781250
9909,-50.781250
9910,-46.875000
9911,-46.875000
9912,-46.875000
9913,-46.875000
9914,-46.875000
9915,-46.875000
9916,-46.875000
9917,-42.968750
9918,-42.968750
9919,-42.968750
9920,-42.968750
9921,-42.968750
9922,-39.062500
9923,-39.062500
9924,-39.062500
9925,-39.062500
9926,-39.062500
9927,-39.062500
9928,-39.062500
9929,-35.156250
9930,-35.156250
9931,-35.156250
9932,-35.156250
9933,-35.156250
9934,-35.156250
9935,-35.156250
9936,-31.250000
9937,-31.250000
9938,-31.250000
9939,-31.250000
9940,-31.250000
9941,-27.343750
9942,-27.343750
9943,-27.343750
9944,-27.343750
9945,-27.343750
9946,-27.343750
9947,-27.343750
9948,-23.437500
9949,-23.437500
9950,-23.437500
9951,-23.437500
9952,-23.437500
9953,-23.437500
9954,-19.531250
9955,-19.531250
9956,-19.531250
9957,-19.531250
9958,-19.531250
9959,-15.625000
9960,-15.625000
9961,-15.625000
9962,-15.625000
9963,-15.625000
9964,-15.625000
9965,-15.625000
9966,-11.718750
9967,-11.718750
9968,-11.718750
9969,-11.718750
9970,-11.718750
9971,-11.718750
9972,-7.812500
9973,-7.812500
9974,-7.812500
9975,-7.812500
9976,-7.812500
9977,-7.812500
9978,-3.906250
9979,-3.906250
9980,-3.906250
9981,-3.906250
9982,-3.906250
9983,-3.906250
9984,-3.906250
9985,0.000000
9986,0.000000
9987,0.000000
9988,0.000000
9989,0.000000
9990,3.906250
9991,3.906250
9992,3.906250
9993,3.906250
9994,3.906250
9995,3.906250
9996,3.906250
9997,7.812500
9998,7.812500
9999,7.812500
10000,7.812500
