Channel              :,CH1
Frequency            :,1.010kHz
Period               :,0.990ms
PK-PK                :,269.5mV
Probe attenuation    :,1X
Voltage per ADC value:,0.244141mV
Time interval        :,1.00000us

index,CH1_Voltage(mV)
1,-66.406250
2,-66.406250
3,-66.406250
4,-66.406250
5,-66.406250
6,-62.500000
7,-62.500000
8,-62.500000
9,-62.500000
10,-62.500000
11,-58.593750
12,-58.593750
13,-58.593750
14,-58.593750
15,-54.687500
16,-54.687500
17,-54.687500
18,-54.687500
19,-50.781250
20,-50.781250
21,-50.781250
22,-50.781250
23,-50.781250
24,-50.781250
25,-46.875000
26,-46.875000
27,-46.875000
28,-46.875000
29,-42.968750
30,-42.968750
31,-42.968750
32,-42.968750
33,-42.968750
34,-39.062500
35,-39.062500
36,-39.062500
37,-39.062500
38,-35.156250
39,-35.156250
40,-35.156250
41,-35.156250
42,-35.156250
43,-31.250000
44,-31.250000
45,-31.250000
46,-31.250000
47,-31.250000
48,-27.343750
49,-27.343750
50,-27.343750
51,-23.437500
52,-27.343750
53,-23.437500
54,-23.437500
55,-23.437500
56,-23.437500
57,-19.531250
58,-19.531250
59,-19.531250
60,-19.531250
61,-19.531250
62,-15.625000
63,-15.625000
64,-15.625000
65,-15.625000
66,-11.718750
67,-11.718750
68,-11.718750
69,-11.718750
70,-11.718750
71,-11.718750
72,-7.812500
73,-7.812500
74,-7.812500
75,-3.906250
76,-3.906250
77,-3.906250
78,-3.906250
79,-3.906250
80,-3.906250
81,0.000000
82,0.000000
83,0.000000
84,0.000000
85,3.906250
86,3.906250
87,3.906250
88,3.906250
89,3.906250
90,3.906250
91,7.812500
92,7.812500
93,7.812500
94,11.718750
95,11.718750
96,11.718750
97,11.718750
98,11.718750
99,11.718750
100,15.625000
101,15.625000
102,15.625000
103,15.625000
104,15.625000
105,19.531250
106,19.531250
107,19.531250
108,19.531250
109,23.437500
110,23.437500
111,23.437500
112,23.437500
113,23.437500
114,27.343750
115,27.343750
116,27.343750
117,27.343750
118,27.343750
119,31.250000
120,27.343750
121,31.250000
122,31.250000
123,31.250000
124,31.250000
125,35.156250
126,35.156250
127,35.156250
128,35.156250
129,35.156250
130,35.156250
131,39.062500
132,39.062500
133,39.062500
134,39.062500
135,39.062500
136,42.968750
137,42.968750
138,42.968750
139,42.968750
140,42.968750
141,46.875000
142,46.875000
143,46.875000
144,46.875000
145,46.875000
146,46.875000
147,50.781250
148,50.781250
149,50.781250
150,50.781250
151,50.781250
152,50.781250
153,54.687500
154,54.687500
155,54.687500
156,54.687500
157,54.687500
158,54.687500
159,58.593750
160,58.593750
161,58.593750
162,58.593750
163,58.593750
164,62.500000
165,62.500000
166,62.500000
167,62.500000
168,62.500000
169,62.500000
170,62.500000
171,66.406250
172,66.406250
173,66.406250
174,66.406250
175,66.406250
176,70.312500
177,66.406250
178,66.406250
179,70.312500
180,70.312500
181,70.312500
182,70.312500
183,70.312500
184,74.218750
185,74.218750
186,74.218750
187,74.218750
188,74.218750
189,74.218750
190,74.218750
191,78.125000
192,78.125000
193,78.125000
194,78.125000
195,78.125000
196,78.125000
197,78.125000
198,78.125000
199,78.125000
200,82.031250
201,82.031250
202,82.031250
203,82.031250
204,82.031250
205,85.937500
206,82.031250
207,85.937500
208,85.937500
209,85.937500
210,85.937500
211,85.937500
212,85.937500
213,85.937500
214,89.843750
215,89.843750
216,89.843750
217,89.843750
218,89.843750
219,89.843750
220,89.843750
221,89.843750
222,89.843750
223,89.843750
224,89.843750
225,93.750000
226,93.750000
227,93.750000
228,93.750000
229,93.750000
230,93.750000
231,93.750000
232,93.750000
233,97.656250
234,93.750000
235,97.656250
236,97.656250
237,97.656250
238,97.656250
239,97.656250
240,97.656250
241,97.656250
242,97.656250
243,97.656250
244,97.656250
245,97.656250
246,97.656250
247,101.562500
248,101.562500
249,101.562500
250,101.562500
251,101.562500
252,101.562500
253,101.562500
254,101.562500
255,101.562500
256,101.562500
257,101.562500
258,101.562500
259,101.562500
260,101.562500
261,105.468750
262,105.468750
263,105.468750
264,105.468750
265,105.468750
266,105.468750
267,105.468750
268,105.468750
269,105.468750
270,105.468750
271,105.468750
272,105.468750
273,105.468750
274,105.468750
275,105.468750
276,105.468750
277,109.375000
278,105.468750
279,109.375000
280,109.375000
281,109.375000
282,109.375000
283,109.375000
284,109.375000
285,109.375000
286,109.375000
287,109.375000
288,109.375000
289,109.375000
290,109.375000
291,109.375000
292,109.375000
293,109.375000
294,109.375000
295,109.375000
296,109.375000
297,109.375000
298,109.375000
299,109.375000
300,109.375000
301,109.375000
302,109.375000
303,109.375000
304,113.281250
305,109.375000
306,113.281250
307,113.281250
308,113.281250
309,113.281250
310,113.281250
311,113.281250
312,113.281250
313,113.281250
314,113.281250
315,113.281250
316,113.281250
317,113.281250
318,113.281250
319,113.281250
320,113.281250
321,113.281250
322,113.281250
323,113.281250
324,113.281250
325,113.281250
326,113.281250
327,113.281250
328,113.281250
329,113.281250
330,113.281250
331,113.281250
332,109.375000
333,109.375000
334,109.375000
335,109.375000
336,109.375000
337,113.281250
338,109.375000
339,113.281250
340,109.375000
341,109.375000
342,109.375000
343,109.375000
344,109.375000
345,109.375000
346,109.375000
347,109.375000
348,109.375000
349,109.375000
350,109.375000
351,109.375000
352,109.375000
353,109.375000
354,109.375000
355,109.375000
356,109.375000
357,109.375000
358,109.375000
359,109.375000
360,109.375000
361,109.375000
362,109.375000
363,109.375000
364,109.375000
365,109.375000
366,109.375000
367,109.375000
368,109.375000
369,109.375000
370,109.375000
371,105.468750
372,105.468750
373,105.468750
374,105.468750
375,105.468750
376,105.468750
377,105.468750
378,105.468750
379,105.468750
380,105.468750
381,105.468750
382,105.468750
383,105.468750
384,101.562500
385,105.468750
386,101.562500
387,105.468750
388,101.562500
389,101.562500
390,101.562500
391,101.562500
392,101.562500
393,101.562500
394,101.562500
395,101.562500
396,101.562500
397,101.562500
398,101.562500
399,97.656250
400,97.656250
401,97.656250
402,97.656250
403,97.656250
404,97.656250
405,97.656250
406,97.656250
407,97.656250
408,97.656250
409,97.656250
410,97.656250
411,93.750000
412,93.750000
413,93.750000
414,93.750000
415,93.750000
416,93.750000
417,93.750000
418,93.750000
419,93.750000
420,93.750000
421,93.750000
422,89.843750
423,89.843750
424,89.843750
425,89.843750
426,89.843750
427,89.843750
428,89.843750
429,89.843750
430,85.937500
431,85.937500
432,85.937500
433,85.937500
434,85.937500
435,85.937500
436,85.937500
437,85.937500
438,85.937500
439,85.937500
440,82.031250
441,82.031250
442,82.031250
443,82.031250
444,82.031250
445,82.031250
446,82.031250
447,82.031250
448,78.125000
449,78.125000
450,78.125000
451,78.125000
452,78.125000
453,78.125000
454,78.125000
455,74.218750
456,78.125000
457,74.218750
458,74.218750
459,74.218750
460,74.218750
461,74.218750
462,70.312500
463,70.312500
464,70.312500
465,70.312500
466,70.312500
467,70.312500
468,70.312500
469,66.406250
470,66.406250
471,66.406250
472,66.406250
473,66.406250
474,66.406250
475,62.500000
476,62.500000
477,62.500000
478,62.500000
479,62.500000
480,62.500000
481,62.500000
482,58.593750
483,58.593750
484,58.593750
485,58.593750
486,58.593750
487,58.593750
488,54.687500
489,54.687500
490,54.687500
491,54.687500
492,50.781250
493,50.781250
494,50.781250
495,50.781250
496,50.781250
497,50.781250
498,46.875000
499,50.781250
500,46.875000
501,46.875000
502,46.875000
503,46.875000
504,46.875000
505,42.968750
506,42.968750
507,42.968750
508,42.968750
509,42.968750
510,39.062500
511,39.062500
512,39.062500
513,39.062500
514,39.062500
515,39.062500
516,35.156250
517,35.156250
518,35.156250
519,35.156250
520,31.250000
521,31.250000
522,31.250000
523,31.250000
524,31.250000
525,27.343750
526,27.343750
527,27.343750
528,27.343750
529,27.343750
530,27.343750
531,23.437500
532,23.437500
533,23.437500
534,23.437500
535,23.437500
536,19.531250
537,19.531250
538,19.531250
539,19.531250
540,15.625000
541,15.625000
542,15.625000
543,15.625000
544,15.625000
545,11.718750
546,11.718750
547,11.718750
548,11.718750
549,11.718750
550,11.718750
551,7.812500
552,7.812500
553,7.812500
554,7.812500
555,7.812500
556,3.906250
557,3.906250
558,3.906250
559,3.906250
560,0.000000
561,0.000000
562,0.000000
563,0.000000
564,0.000000
565,-3.906250
566,-3.906250
567,-3.906250
568,-3.906250
569,-3.906250
570,-7.812500
571,-7.812500
572,-7.812500
573,-7.812500
574,-11.718750
575,-11.718750
576,-11.718750
577,-11.718750
578,-15.625000
579,-15.625000
580,-15.625000
581,-15.625000
582,-15.625000
583,-19.531250
584,-19.531250
585,-19.531250
586,-19.531250
587,-23.437500
588,-23.437500
589,-23.437500
590,-23.437500
591,-23.437500
592,-27.343750
593,-27.343750
594,-27.343750
595,-27.343750
596,-31.250000
597,-31.250000
598,-31.250000
599,-31.250000
600,-31.250000
601,-35.156250
602,-35.156250
603,-31.250000
604,-35.156250
605,-35.156250
606,-39.062500
607,-39.062500
608,-39.062500
609,-39.062500
610,-42.968750
611,-42.968750
612,-42.968750
613,-42.968750
614,-42.968750
615,-46.875000
616,-46.875000
617,-46.875000
618,-46.875000
619,-46.875000
620,-50.781250
621,-50.781250
622,-50.781250
623,-50.781250
624,-50.781250
625,-54.687500
626,-54.687500
627,-54.687500
628,-54.687500
629,-58.593750
630,-58.593750
631,-58.593750
632,-58.593750
633,-58.593750
634,-62.500000
635,-62.500000
636,-62.500000
637,-62.500000
638,-62.500000
639,-66.406250
640,-66.406250
641,-66.406250
642,-66.406250
643,-70.312500
644,-70.312500
645,-70.312500
646,-70.312500
647,-70.312500
648,-70.312500
649,-74.218750
650,-74.218750
651,-74.218750
652,-74.218750
653,-78.125000
654,-78.125000
655,-78.125000
656,-78.125000
657,-78.125000
658,-78.125000
659,-78.125000
660,-82.031250
661,-82.031250
662,-82.031250
663,-82.031250
664,-85.937500
665,-85.937500
666,-85.937500
667,-85.937500
668,-85.937500
669,-89.843750
670,-89.843750
671,-89.843750
672,-89.843750
673,-89.843750
674,-93.750000
675,-93.750000
676,-93.750000
677,-93.750000
678,-93.750000
679,-93.750000
680,-93.750000
681,-97.656250
682,-97.656250
683,-97.656250
684,-97.656250
685,-101.562500
686,-101.562500
687,-101.562500
688,-101.562500
689,-101.562500
690,-101.562500
691,-101.562500
692,-105.468750
693,-105.468750
694,-105.468750
695,-105.468750
696,-109.375000
697,-109.375000
698,-109.375000
699,-109.375000
700,-109.375000
701,-109.375000
702,-109.375000
703,-113.281250
704,-113.281250
705,-113.281250
706,-113.281250
707,-113.281250
708,-113.281250
709,-113.281250
710,-113.281250
711,-113.281250
712,-117.187500
713,-117.187500
714,-117.187500
715,-117.187500
716,-117.187500
717,-117.187500
718,-121.093750
719,-121.093750
720,-121.093750
721,-121.093750
722,-121.093750
723,-121.093750
724,-125.000000
725,-125.000000
726,-125.000000
727,-125.000000
728,-125.000000
729,-125.000000
730,-125.000000
731,-125.000000
732,-128.906250
733,-128.906250
734,-128.906250
735,-128.906250
736,-128.906250
737,-128.906250
738,-128.906250
739,-128.906250
740,-128.906250
741,-132.812500
742,-132.812500
743,-132.812500
744,-132.812500
745,-132.812500
746,-132.812500
747,-132.812500
748,-132.812500
749,-136.718750
750,-136.718750
751,-136.718750
752,-136.718750
753,-136.718750
754,-136.718750
755,-136.718750
756,-136.718750
757,-136.718750
758,-136.718750
759,-136.718750
760,-136.718750
761,-140.625000
762,-140.625000
763,-140.625000
764,-140.625000
765,-140.625000
766,-140.625000
767,-140.625000
768,-140.625000
769,-140.625000
770,-140.625000
771,-140.625000
772,-140.625000
773,-140.625000
774,-144.531250
775,-144.531250
776,-144.531250
777,-144.531250
778,-144.531250
779,-144.531250
780,-144.531250
781,-144.531250
782,-144.531250
783,-144.531250
784,-144.531250
785,-144.531250
786,-144.531250
787,-144.531250
788,-144.531250
789,-144.531250
790,-144.531250
791,-144.531250
792,-144.531250
793,-144.531250
794,-148.437500
795,-148.437500
796,-148.437500
797,-148.437500
798,-148.437500
799,-148.437500
800,-148.437500
801,-148.437500
802,-148.437500
803,-148.437500
804,-148.437500
805,-148.437500
806,-148.437500
807,-148.437500
808,-148.437500
809,-148.437500
810,-148.437500
811,-148.437500
812,-148.437500
813,-148.437500
814,-148.437500
815,-148.437500
816,-148.437500
817,-148.437500
818,-148.437500
819,-148.437500
820,-148.437500
821,-148.437500
822,-148.437500
823,-148.437500
824,-148.437500
825,-148.437500
826,-148.437500
827,-148.437500
828,-148.437500
829,-148.437500
830,-148.437500
831,-148.437500
832,-148.437500
833,-144.531250
834,-148.437500
835,-148.437500
836,-144.531250
837,-144.531250
838,-148.437500
839,-148.437500
840,-148.437500
841,-144.531250
842,-144.531250
843,-148.437500
844,-144.531250
845,-144.531250
846,-144.531250
847,-144.531250
848,-144.531250
849,-144.531250
850,-144.531250
851,-144.531250
852,-144.531250
853,-144.531250
854,-144.531250
855,-144.531250
856,-144.531250
857,-144.531250
858,-144.531250
859,-140.625000
860,-144.531250
861,-144.531250
862,-140.625000
863,-140.625000
864,-140.625000
865,-140.625000
866,-140.625000
867,-140.625000
868,-140.625000
869,-140.625000
870,-140.625000
871,-140.625000
872,-136.718750
873,-136.718750
874,-136.718750
875,-136.718750
876,-136.718750
877,-136.718750
878,-136.718750
879,-136.718750
880,-136.718750
881,-136.718750
882,-136.718750
883,-136.718750
884,-132.812500
885,-136.718750
886,-132.812500
887,-132.812500
888,-132.812500
889,-132.812500
890,-132.812500
891,-132.812500
892,-132.812500
893,-128.906250
894,-132.812500
895,-132.812500
896,-128.906250
897,-128.906250
898,-128.906250
899,-128.906250
900,-128.906250
901,-128.906250
902,-125.000000
903,-125.000000
904,-125.000000
905,-125.000000
906,-125.000000
907,-125.000000
908,-125.000000
909,-125.000000
910,-121.093750
911,-121.093750
912,-121.093750
913,-121.093750
914,-121.093750
915,-121.093750
916,-121.093750
917,-121.093750
918,-117.187500
919,-117.187500
920,-117.187500
921,-117.187500
922,-117.187500
923,-117.187500
924,-117.187500
925,-113.281250
926,-113.281250
927,-113.281250
928,-113.281250
929,-113.281250
930,-113.281250
931,-109.375000
932,-109.375000
933,-109.375000
934,-109.375000
935,-109.375000
936,-109.375000
937,-109.375000
938,-105.468750
939,-105.468750
940,-105.468750
941,-105.468750
942,-105.468750
943,-101.562500
944,-101.562500
945,-101.562500
946,-101.562500
947,-97.656250
948,-101.562500
949,-97.656250
950,-97.656250
951,-97.656250
952,-97.656250
953,-97.656250
954,-93.750000
955,-93.750000
956,-93.750000
957,-93.750000
958,-93.750000
959,-93.750000
960,-89.843750
961,-89.843750
962,-89.843750
963,-89.843750
964,-89.843750
965,-85.937500
966,-85.937500
967,-85.937500
968,-85.937500
969,-85.937500
970,-85.937500
971,-82.031250
972,-82.031250
973,-82.031250
974,-82.031250
975,-82.031250
976,-82.031250
977,-78.125000
978,-78.125000
979,-78.125000
980,-78.125000
981,-74.218750
982,-74.218750
983,-74.218750
984,-74.218750
985,-74.218750
986,-70.312500
987,-70.312500
988,-70.312500
989,-70.312500
990,-70.312500
991,-66.406250
992,-66.406250
993,-66.406250
994,-66.406250
995,-66.406250
996,-62.500000
997,-62.500000
998,-62.500000
999,-62.500000
1000,-62.500000
1001,-58.593750
1002,-58.593750
1003,-58.593750
1004,-58.593750
1005,-54.687500
1006,-54.687500
1007,-54.687500
1008,-54.687500
1009,-54.687500
1010,-50.781250
1011,-50.781250
1012,-50.781250
1013,-50.781250
1014,-50.781250
1015,-46.875000
1016,-46.875000
1017,-46.875000
1018,-46.875000
1019,-42.968750
1020,-42.968750
1021,-42.968750
1022,-42.968750
1023,-42.968750
1024,-42.968750
1025,-42.968750
1026,-39.062500
1027,-39.062500
1028,-35.156250
1029,-35.156250
1030,-35.156250
1031,-35.156250
1032,-35.156250
1033,-35.156250
1034,-31.250000
1035,-31.250000
1036,-31.250000
1037,-31.250000
1038,-27.343750
1039,-27.343750
1040,-27.343750
1041,-27.343750
1042,-27.343750
1043,-23.437500
1044,-23.437500
1045,-23.437500
1046,-23.437500
1047,-19.531250
1048,-19.531250
1049,-19.531250
1050,-19.531250
1051,-19.531250
1052,-15.625000
1053,-15.625000
1054,-15.625000
1055,-15.625000
1056,-15.625000
1057,-11.718750
1058,-11.718750
1059,-11.718750
1060,-11.718750
1061,-7.812500
1062,-7.812500
1063,-7.812500
1064,-7.812500
1065,-7.812500
1066,-3.906250
1067,-3.906250
1068,-3.906250
1069,0.000000
1070,-3.906250
1071,0.000000
1072,0.000000
1073,0.000000
1074,0.000000
1075,3.906250
1076,3.906250
1077,3.906250
1078,3.906250
1079,3.906250
1080,7.812500
1081,7.812500
1082,7.812500
1083,7.812500
1084,7.812500
1085,11.718750
1086,11.718750
1087,11.718750
1088,11.718750
1089,15.625000
1090,15.625000
1091,15.625000
1092,15.625000
1093,15.625000
1094,15.625000
1095,19.531250
1096,19.531250
1097,19.531250
1098,19.531250
1099,23.437500
1100,23.437500
1101,23.437500
1102,23.437500
1103,23.437500
1104,23.437500
1105,27.343750
1106,27.343750
1107,27.343750
1108,27.343750
1109,31.250000
1110,27.343750
1111,31.250000
1112,31.250000
1113,31.250000
1114,31.250000
1115,35.156250
1116,35.156250
1117,35.156250
1118,35.156250
1119,35.156250
1120,35.156250
1121,39.062500
1122,39.062500
1123,39.062500
1124,39.062500
1125,42.968750
1126,42.968750
1127,42.968750
1128,42.968750
1129,42.968750
1130,42.968750
1131,46.875000
1132,46.875000
1133,46.875000
1134,46.875000
1135,50.781250
1136,46.875000
1137,50.781250
1138,50.781250
1139,50.781250
1140,50.781250
1141,50.781250
1142,50.781250
1143,54.687500
1144,54.687500
1145,54.687500
1146,54.687500
1147,54.687500
1148,54.687500
1149,58.593750
1150,58.593750
1151,58.593750
1152,58.593750
1153,58.593750
1154,62.500000
1155,62.500000
1156,62.500000
1157,62.500000
1158,62.500000
1159,62.500000
1160,62.500000
1161,62.500000
1162,62.500000
1163,66.406250
1164,66.406250
1165,66.406250
1166,66.406250
1167,66.406250
1168,70.312500
1169,70.312500
1170,70.312500
1171,70.312500
1172,70.312500
1173,70.312500
1174,70.312500
1175,74.218750
1176,74.218750
1177,74.218750
1178,74.218750
1179,74.218750
1180,74.218750
1181,78.125000
1182,74.218750
1183,78.125000
1184,78.125000
1185,78.125000
1186,78.125000
1187,78.125000
1188,78.125000
1189,78.125000
1190,82.031250
1191,82.031250
1192,82.031250
1193,82.031250
1194,82.031250
1195,82.031250
1196,82.031250
1197,85.937500
1198,85.937500
1199,85.937500
1200,85.937500
1201,85.937500
1202,85.937500
1203,85.937500
1204,85.937500
1205,89.843750
1206,89.843750
1207,89.843750
1208,89.843750
1209,89.843750
1210,89.843750
1211,89.843750
1212,89.843750
1213,89.843750
1214,89.843750
1215,93.750000
1216,93.750000
1217,93.750000
1218,93.750000
1219,93.750000
1220,93.750000
1221,93.750000
1222,93.750000
1223,93.750000
1224,97.656250
1225,97.656250
1226,97.656250
1227,97.656250
1228,97.656250
1229,97.656250
1230,97.656250
1231,97.656250
1232,97.656250
1233,97.656250
1234,97.656250
1235,101.562500
1236,101.562500
1237,101.562500
1238,101.562500
1239,101.562500
1240,101.562500
1241,101.562500
1242,101.562500
1243,101.562500
1244,101.562500
1245,101.562500
1246,101.562500
1247,101.562500
1248,105.468750
1249,101.562500
1250,105.468750
1251,105.468750
1252,105.468750
1253,105.468750
1254,105.468750
1255,105.468750
1256,105.468750
1257,105.468750
1258,105.468750
1259,105.468750
1260,105.468750
1261,105.468750
1262,105.468750
1263,105.468750
1264,109.375000
1265,105.468750
1266,105.468750
1267,105.468750
1268,105.468750
1269,105.468750
1270,109.375000
1271,109.375000
1272,109.375000
1273,109.375000
1274,109.375000
1275,109.375000
1276,109.375000
1277,109.375000
1278,109.375000
1279,109.375000
1280,109.375000
1281,109.375000
1282,109.375000
1283,109.375000
1284,109.375000
1285,109.375000
1286,109.375000
1287,109.375000
1288,109.375000
1289,109.375000
1290,113.281250
1291,113.281250
1292,109.375000
1293,113.281250
1294,109.375000
1295,109.375000
1296,109.375000
1297,109.375000
1298,109.375000
1299,113.281250
1300,113.281250
1301,113.281250
1302,113.281250
1303,113.281250
1304,113.281250
1305,113.281250
1306,109.375000
1307,113.281250
1308,113.281250
1309,113.281250
1310,113.281250
1311,113.281250
1312,113.281250
1313,113.281250
1314,109.375000
1315,113.281250
1316,113.281250
1317,113.281250
1318,113.281250
1319,113.281250
1320,113.281250
1321,113.281250
1322,113.281250
1323,113.281250
1324,113.281250
1325,113.281250
1326,113.281250
1327,113.281250
1328,113.281250
1329,113.281250
1330,113.281250
1331,113.281250
1332,109.375000
1333,113.281250
1334,109.375000
1335,113.281250
1336,109.375000
1337,109.375000
1338,109.375000
1339,109.375000
1340,109.375000
1341,109.375000
1342,109.375000
1343,109.375000
1344,109.375000
1345,109.375000
1346,109.375000
1347,109.375000
1348,109.375000
1349,109.375000
1350,109.375000
1351,109.375000
1352,109.375000
1353,109.375000
1354,109.375000
1355,109.375000
1356,109.375000
1357,109.375000
1358,109.375000
1359,109.375000
1360,109.375000
1361,105.468750
1362,105.468750
1363,105.468750
1364,105.468750
1365,105.468750
1366,105.468750
1367,105.468750
1368,105.468750
1369,105.468750
1370,105.468750
1371,105.468750
1372,105.468750
1373,105.468750
1374,105.468750
1375,105.468750
1376,105.468750
1377,105.468750
1378,101.562500
1379,101.562500
1380,101.562500
1381,105.468750
1382,101.562500
1383,101.562500
1384,101.562500
1385,101.562500
1386,101.562500
1387,101.562500
1388,101.562500
1389,101.562500
1390,97.656250
1391,97.656250
1392,97.656250
1393,97.656250
1394,97.656250
1395,97.656250
1396,97.656250
1397,97.656250
1398,97.656250
1399,97.656250
1400,97.656250
1401,97.656250
1402,93.750000
1403,93.750000
1404,93.750000
1405,93.750000
1406,93.750000
1407,93.750000
1408,93.750000
1409,93.750000
1410,93.750000
1411,89.843750
1412,89.843750
1413,89.843750
1414,89.843750
1415,89.843750
1416,89.843750
1417,89.843750
1418,89.843750
1419,89.843750
1420,89.843750
1421,89.843750
1422,85.937500
1423,85.937500
1424,85.937500
1425,85.937500
1426,85.937500
1427,85.937500
1428,82.031250
1429,82.031250
1430,85.937500
1431,82.031250
1432,82.031250
1433,82.031250
1434,82.031250
1435,82.031250
1436,78.125000
1437,78.125000
1438,78.125000
1439,78.125000
1440,78.125000
1441,78.125000
1442,78.125000
1443,78.125000
1444,74.218750
1445,74.218750
1446,74.218750
1447,74.218750
1448,74.218750
1449,74.218750
1450,74.218750
1451,74.218750
1452,70.312500
1453,70.312500
1454,70.312500
1455,70.312500
1456,70.312500
1457,70.312500
1458,70.312500
1459,66.406250
1460,66.406250
1461,66.406250
1462,66.406250
1463,66.406250
1464,66.406250
1465,62.500000
1466,62.500000
1467,62.500000
1468,62.500000
1469,62.500000
1470,62.500000
1471,58.593750
1472,58.593750
1473,58.593750
1474,58.593750
1475,58.593750
1476,58.593750
1477,54.687500
1478,54.687500
1479,54.687500
1480,54.687500
1481,54.687500
1482,54.687500
1483,50.781250
1484,50.781250
1485,50.781250
1486,50.781250
1487,50.781250
1488,50.781250
1489,46.875000
1490,46.875000
1491,46.875000
1492,46.875000
1493,46.875000
1494,42.968750
1495,42.968750
1496,42.968750
1497,42.968750
1498,42.968750
1499,39.062500
1500,39.062500
1501,39.062500
1502,39.062500
1503,39.062500
1504,39.062500
1505,35.156250
1506,35.156250
1507,35.156250
1508,35.156250
1509,31.250000
1510,31.250000
1511,31.250000
1512,31.250000
1513,31.250000
1514,31.250000
1515,27.343750
1516,31.250000
1517,27.343750
1518,27.343750
1519,27.343750
1520,23.437500
1521,23.437500
1522,23.437500
1523,23.437500
1524,23.437500
1525,19.531250
1526,19.531250
1527,19.531250
1528,19.531250
1529,19.531250
1530,15.625000
1531,15.625000
1532,15.625000
1533,15.625000
1534,15.625000
1535,11.718750
1536,11.718750
1537,11.718750
1538,11.718750
1539,11.718750
1540,7.812500
1541,7.812500
1542,7.812500
1543,7.812500
1544,3.906250
1545,3.906250
1546,3.906250
1547,3.906250
1548,3.906250
1549,0.000000
1550,0.000000
1551,0.000000
1552,0.000000
1553,0.000000
1554,-3.906250
1555,-3.906250
1556,-3.906250
1557,-3.906250
1558,-3.906250
1559,-7.812500
1560,-7.812500
1561,-7.812500
1562,-7.812500
1563,-7.812500
1564,-11.718750
1565,-11.718750
1566,-11.718750
1567,-11.718750
1568,-11.718750
1569,-15.625000
1570,-15.625000
1571,-15.625000
1572,-19.531250
1573,-19.531250
1574,-19.531250
1575,-19.531250
1576,-19.531250
1577,-19.531250
1578,-23.437500
1579,-23.437500
1580,-23.437500
1581,-27.343750
1582,-27.343750
1583,-27.343750
1584,-27.343750
1585,-27.343750
1586,-27.343750
1587,-31.250000
1588,-31.250000
1589,-31.250000
1590,-31.250000
1591,-35.156250
1592,-35.156250
1593,-35.156250
1594,-35.156250
1595,-35.156250
1596,-39.062500
1597,-39.062500
1598,-39.062500
1599,-42.968750
1600,-42.968750
1601,-42.968750
1602,-42.968750
1603,-42.968750
1604,-42.968750
1605,-46.875000
1606,-46.875000
1607,-46.875000
1608,-46.875000
1609,-50.781250
1610,-50.781250
1611,-50.781250
1612,-50.781250
1613,-50.781250
1614,-50.781250
1615,-54.687500
1616,-54.687500
1617,-54.687500
1618,-54.687500
1619,-58.593750
1620,-58.593750
1621,-58.593750
1622,-58.593750
1623,-58.593750
1624,-62.500000
1625,-62.500000
1626,-62.500000
1627,-62.500000
1628,-66.406250
1629,-66.406250
1630,-66.406250
1631,-66.406250
1632,-66.406250
1633,-70.312500
1634,-70.312500
1635,-70.312500
1636,-70.312500
1637,-70.312500
1638,-74.218750
1639,-74.218750
1640,-74.218750
1641,-74.218750
1642,-78.125000
1643,-78.125000
1644,-78.125000
1645,-78.125000
1646,-78.125000
1647,-78.125000
1648,-82.031250
1649,-82.031250
1650,-82.031250
1651,-82.031250
1652,-82.031250
1653,-85.937500
1654,-85.937500
1655,-85.937500
1656,-85.937500
1657,-85.937500
1658,-85.937500
1659,-89.843750
1660,-89.843750
1661,-89.843750
1662,-89.843750
1663,-89.843750
1664,-93.750000
1665,-93.750000
1666,-93.750000
1667,-93.750000
1668,-93.750000
1669,-93.750000
1670,-97.656250
1671,-97.656250
1672,-97.656250
1673,-97.656250
1674,-101.562500
1675,-101.562500
1676,-101.562500
1677,-101.562500
1678,-101.562500
1679,-101.562500
1680,-101.562500
1681,-105.468750
1682,-105.468750
1683,-105.468750
1684,-105.468750
1685,-105.468750
1686,-109.375000
1687,-109.375000
1688,-109.375000
1689,-109.375000
1690,-109.375000
1691,-109.375000
1692,-113.281250
1693,-113.281250
1694,-113.281250
1695,-113.281250
1696,-113.281250
1697,-113.281250
1698,-113.281250
1699,-113.281250
1700,-113.281250
1701,-117.187500
1702,-117.187500
1703,-117.187500
1704,-117.187500
1705,-117.187500
1706,-117.187500
1707,-121.093750
1708,-121.093750
1709,-121.093750
1710,-121.093750
1711,-121.093750
1712,-121.093750
1713,-121.093750
1714,-121.093750
1715,-125.000000
1716,-125.000000
1717,-125.000000
1718,-125.000000
1719,-125.000000
1720,-125.000000
1721,-128.906250
1722,-128.906250
1723,-128.906250
1724,-128.906250
1725,-128.906250
1726,-128.906250
1727,-128.906250
1728,-128.906250
1729,-128.906250
1730,-132.812500
1731,-132.812500
1732,-132.812500
1733,-132.812500
1734,-132.812500
1735,-132.812500
1736,-132.812500
1737,-132.812500
1738,-132.812500
1739,-136.718750
1740,-136.718750
1741,-136.718750
1742,-136.718750
1743,-136.718750
1744,-136.718750
1745,-136.718750
1746,-136.718750
1747,-136.718750
1748,-136.718750
1749,-136.718750
1750,-140.625000
1751,-140.625000
1752,-140.625000
1753,-140.625000
1754,-140.625000
1755,-140.625000
1756,-140.625000
1757,-140.625000
1758,-140.625000
1759,-140.625000
1760,-140.625000
1761,-140.625000
1762,-140.625000
1763,-140.625000
1764,-144.531250
1765,-144.531250
1766,-144.531250
1767,-144.531250
1768,-144.531250
1769,-144.531250
1770,-144.531250
1771,-144.531250
1772,-144.531250
1773,-144.531250
1774,-144.531250
1775,-144.531250
1776,-144.531250
1777,-144.531250
1778,-148.437500
1779,-144.531250
1780,-144.531250
1781,-144.531250
1782,-144.531250
1783,-148.437500
1784,-148.437500
1785,-148.437500
1786,-148.437500
1787,-148.437500
1788,-148.437500
1789,-148.437500
1790,-148.437500
1791,-148.437500
1792,-148.437500
1793,-148.437500
1794,-148.437500
1795,-148.437500
1796,-148.437500
1797,-148.437500
1798,-148.437500
1799,-148.437500
1800,-148.437500
1801,-148.437500
1802,-148.437500
1803,-148.437500
1804,-148.437500
1805,-148.437500
1806,-148.437500
1807,-148.437500
1808,-148.437500
1809,-148.437500
1810,-148.437500
1811,-148.437500
1812,-148.437500
1813,-148.437500
1814,-148.437500
1815,-148.437500
1816,-148.437500
1817,-148.437500
1818,-148.437500
1819,-148.437500
1820,-148.437500
1821,-148.437500
1822,-148.437500
1823,-148.437500
1824,-148.437500
1825,-148.437500
1826,-148.437500
1827,-148.437500
1828,-148.437500
1829,-144.531250
1830,-148.437500
1831,-144.531250
1832,-144.531250
1833,-144.531250
1834,-144.531250
1835,-144.531250
1836,-144.531250
1837,-144.531250
1838,-144.531250
1839,-144.531250
1840,-144.531250
1841,-144.531250
1842,-144.531250
1843,-144.531250
1844,-144.531250
1845,-144.531250
1846,-144.531250
1847,-144.531250
1848,-140.625000
1849,-140.625000
1850,-140.625000
1851,-140.625000
1852,-140.625000
1853,-140.625000
1854,-140.625000
1855,-140.625000
1856,-140.625000
1857,-140.625000
1858,-140.625000
1859,-140.625000
1860,-140.625000
1861,-140.625000
1862,-140.625000
1863,-136.718750
1864,-136.718750
1865,-136.718750
1866,-136.718750
1867,-136.718750
1868,-136.718750
1869,-136.718750
1870,-136.718750
1871,-136.718750
1872,-136.718750
1873,-132.812500
1874,-136.718750
1875,-132.812500
1876,-132.812500
1877,-132.812500
1878,-132.812500
1879,-132.812500
1880,-132.812500
1881,-132.812500
1882,-128.906250
1883,-132.812500
1884,-128.906250
1885,-128.906250
1886,-128.906250
1887,-128.906250
1888,-128.906250
1889,-128.906250
1890,-128.906250
1891,-128.906250
1892,-125.000000
1893,-125.000000
1894,-125.000000
1895,-125.000000
1896,-125.000000
1897,-125.000000
1898,-125.000000
1899,-121.093750
1900,-121.093750
1901,-121.093750
1902,-121.093750
1903,-121.093750
1904,-121.093750
1905,-121.093750
1906,-121.093750
1907,-117.187500
1908,-117.187500
1909,-117.187500
1910,-117.187500
1911,-117.187500
1912,-117.187500
1913,-117.187500
1914,-113.281250
1915,-113.281250
1916,-113.281250
1917,-113.281250
1918,-113.281250
1919,-113.281250
1920,-109.375000
1921,-109.375000
1922,-109.375000
1923,-109.375000
1924,-109.375000
1925,-109.375000
1926,-105.468750
1927,-105.468750
1928,-105.468750
1929,-105.468750
1930,-105.468750
1931,-101.562500
1932,-101.562500
1933,-101.562500
1934,-101.562500
1935,-101.562500
1936,-101.562500
1937,-101.562500
1938,-97.656250
1939,-97.656250
1940,-97.656250
1941,-97.656250
1942,-97.656250
1943,-97.656250
1944,-93.750000
1945,-93.750000
1946,-93.750000
1947,-93.750000
1948,-93.750000
1949,-89.843750
1950,-89.843750
1951,-89.843750
1952,-89.843750
1953,-89.843750
1954,-89.843750
1955,-85.937500
1956,-85.937500
1957,-85.937500
1958,-85.937500
1959,-85.937500
1960,-82.031250
1961,-82.031250
1962,-82.031250
1963,-82.031250
1964,-82.031250
1965,-82.031250
1966,-78.125000
1967,-78.125000
1968,-78.125000
1969,-78.125000
1970,-78.125000
1971,-74.218750
1972,-74.218750
1973,-74.218750
1974,-74.218750
1975,-70.312500
1976,-70.312500
1977,-70.312500
1978,-70.312500
1979,-70.312500
1980,-66.406250
1981,-66.406250
1982,-66.406250
1983,-66.406250
1984,-66.406250
1985,-62.500000
1986,-62.500000
1987,-62.500000
1988,-62.500000
1989,-58.593750
1990,-58.593750
1991,-58.593750
1992,-58.593750
1993,-58.593750
1994,-58.593750
1995,-54.687500
1996,-54.687500
1997,-54.687500
1998,-54.687500
1999,-50.781250
2000,-50.781250
2001,-50.781250
2002,-50.781250
2003,-50.781250
2004,-46.875000
2005,-46.875000
2006,-46.875000
2007,-46.875000
2008,-46.875000
2009,-42.968750
2010,-42.968750
2011,-42.968750
2012,-42.968750
2013,-42.968750
2014,-39.062500
2015,-39.062500
2016,-39.062500
2017,-39.062500
2018,-35.156250
2019,-35.156250
2020,-35.156250
2021,-35.156250
2022,-35.156250
2023,-31.250000
2024,-31.250000
2025,-31.250000
2026,-31.250000
2027,-31.250000
2028,-27.343750
2029,-27.343750
2030,-27.343750
2031,-27.343750
2032,-23.437500
2033,-23.437500
2034,-23.437500
2035,-23.437500
2036,-23.437500
2037,-19.531250
2038,-19.531250
2039,-19.531250
2040,-19.531250
2041,-15.625000
2042,-15.625000
2043,-15.625000
2044,-15.625000
2045,-15.625000
2046,-15.625000
2047,-11.718750
2048,-11.718750
2049,-11.718750
2050,-11.718750
2051,-7.812500
2052,-7.812500
2053,-7.812500
2054,-7.812500
2055,-7.812500
2056,-3.906250
2057,-3.906250
2058,-3.906250
2059,-3.906250
2060,0.000000
2061,0.000000
2062,0.000000
2063,0.000000
2064,0.000000
2065,3.906250
2066,3.906250
2067,3.906250
2068,3.906250
2069,3.906250
2070,7.812500
2071,7.812500
2072,7.812500
2073,7.812500
2074,7.812500
2075,11.718750
2076,11.718750
2077,11.718750
2078,11.718750
2079,15.625000
2080,15.625000
2081,15.625000
2082,15.625000
2083,15.625000
2084,15.625000
2085,19.531250
2086,19.531250
2087,19.531250
2088,19.531250
2089,23.437500
2090,23.437500
2091,23.437500
2092,23.437500
2093,23.437500
2094,23.437500
2095,27.343750
2096,27.343750
2097,27.343750
2098,27.343750
2099,31.250000
2100,31.250000
2101,31.250000
2102,31.250000
2103,31.250000
2104,31.250000
2105,31.250000
2106,35.156250
2107,35.156250
2108,35.156250
2109,35.156250
2110,39.062500
2111,39.062500
2112,39.062500
2113,39.062500
2114,39.062500
2115,39.062500
2116,39.062500
2117,42.968750
2118,42.968750
2119,42.968750
2120,42.968750
2121,46.875000
2122,46.875000
2123,46.875000
2124,46.875000
2125,46.875000
2126,50.781250
2127,50.781250
2128,50.781250
2129,50.781250
2130,50.781250
2131,50.781250
2132,50.781250
2133,54.687500
2134,54.687500
2135,54.687500
2136,54.687500
2137,54.687500
2138,58.593750
2139,58.593750
2140,58.593750
2141,58.593750
2142,58.593750
2143,58.593750
2144,58.593750
2145,62.500000
2146,62.500000
2147,62.500000
2148,62.500000
2149,62.500000
2150,62.500000
2151,66.406250
2152,66.406250
2153,66.406250
2154,66.406250
2155,66.406250
2156,66.406250
2157,66.406250
2158,70.312500
2159,70.312500
2160,70.312500
2161,70.312500
2162,70.312500
2163,70.312500
2164,70.312500
2165,70.312500
2166,74.218750
2167,74.218750
2168,74.218750
2169,74.218750
2170,74.218750
2171,74.218750
2172,78.125000
2173,78.125000
2174,78.125000
2175,78.125000
2176,78.125000
2177,82.031250
2178,78.125000
2179,78.125000
2180,82.031250
2181,82.031250
2182,82.031250
2183,82.031250
2184,82.031250
2185,82.031250
2186,82.031250
2187,82.031250
2188,85.937500
2189,85.937500
2190,85.937500
2191,85.937500
2192,85.937500
2193,85.937500
2194,85.937500
2195,85.937500
2196,89.843750
2197,89.843750
2198,89.843750
2199,89.843750
2200,89.843750
2201,89.843750
2202,89.843750
2203,89.843750
2204,89.843750
2205,93.750000
2206,93.750000
2207,93.750000
2208,93.750000
2209,93.750000
2210,93.750000
2211,93.750000
2212,93.750000
2213,93.750000
2214,93.750000
2215,97.656250
2216,97.656250
2217,97.656250
2218,97.656250
2219,97.656250
2220,97.656250
2221,97.656250
2222,97.656250
2223,97.656250
2224,97.656250
2225,97.656250
2226,101.562500
2227,101.562500
2228,101.562500
2229,101.562500
2230,101.562500
2231,101.562500
2232,101.562500
2233,101.562500
2234,101.562500
2235,101.562500
2236,101.562500
2237,105.468750
2238,101.562500
2239,101.562500
2240,101.562500
2241,105.468750
2242,105.468750
2243,105.468750
2244,105.468750
2245,105.468750
2246,105.468750
2247,105.468750
2248,105.468750
2249,105.468750
2250,105.468750
2251,105.468750
2252,105.468750
2253,105.468750
2254,105.468750
2255,109.375000
2256,109.375000
2257,109.375000
2258,109.375000
2259,109.375000
2260,109.375000
2261,109.375000
2262,109.375000
2263,109.375000
2264,109.375000
2265,109.375000
2266,109.375000
2267,109.375000
2268,109.375000
2269,109.375000
2270,109.375000
2271,109.375000
2272,109.375000
2273,109.375000
2274,109.375000
2275,109.375000
2276,109.375000
2277,109.375000
2278,109.375000
2279,109.375000
2280,109.375000
2281,109.375000
2282,109.375000
2283,109.375000
2284,109.375000
2285,109.375000
2286,109.375000
2287,109.375000
2288,109.375000
2289,109.375000
2290,113.281250
2291,113.281250
2292,113.281250
2293,113.281250
2294,113.281250
2295,109.375000
2296,109.375000
2297,109.375000
2298,113.281250
2299,113.281250
2300,113.281250
2301,113.281250
2302,113.281250
2303,113.281250
2304,113.281250
2305,109.375000
2306,113.281250
2307,113.281250
2308,113.281250
2309,113.281250
2310,109.375000
2311,113.281250
2312,113.281250
2313,113.281250
2314,113.281250
2315,109.375000
2316,109.375000
2317,109.375000
2318,109.375000
2319,113.281250
2320,109.375000
2321,109.375000
2322,109.375000
2323,113.281250
2324,109.375000
2325,109.375000
2326,109.375000
2327,109.375000
2328,109.375000
2329,109.375000
2330,109.375000
2331,109.375000
2332,109.375000
2333,109.375000
2334,109.375000
2335,109.375000
2336,109.375000
2337,109.375000
2338,109.375000
2339,109.375000
2340,109.375000
2341,109.375000
2342,109.375000
2343,109.375000
2344,109.375000
2345,109.375000
2346,109.375000
2347,109.375000
2348,105.468750
2349,109.375000
2350,109.375000
2351,109.375000
2352,105.468750
2353,105.468750
2354,105.468750
2355,105.468750
2356,105.468750
2357,105.468750
2358,105.468750
2359,105.468750
2360,105.468750
2361,105.468750
2362,105.468750
2363,105.468750
2364,105.468750
2365,105.468750
2366,105.468750
2367,101.562500
2368,101.562500
2369,101.562500
2370,101.562500
2371,101.562500
2372,101.562500
2373,101.562500
2374,101.562500
2375,101.562500
2376,101.562500
2377,101.562500
2378,101.562500
2379,101.562500
2380,101.562500
2381,101.562500
2382,97.656250
2383,97.656250
2384,97.656250
2385,97.656250
2386,97.656250
2387,97.656250
2388,97.656250
2389,97.656250
2390,97.656250
2391,97.656250
2392,97.656250
2393,93.750000
2394,93.750000
2395,93.750000
2396,93.750000
2397,93.750000
2398,93.750000
2399,93.750000
2400,93.750000
2401,93.750000
2402,89.843750
2403,89.843750
2404,89.843750
2405,89.843750
2406,89.843750
2407,89.843750
2408,89.843750
2409,89.843750
2410,89.843750
2411,89.843750
2412,85.937500
2413,85.937500
2414,85.937500
2415,85.937500
2416,85.937500
2417,85.937500
2418,85.937500
2419,82.031250
2420,82.031250
2421,82.031250
2422,82.031250
2423,82.031250
2424,82.031250
2425,82.031250
2426,82.031250
2427,78.125000
2428,78.125000
2429,78.125000
2430,78.125000
2431,78.125000
2432,78.125000
2433,78.125000
2434,74.218750
2435,74.218750
2436,74.218750
2437,74.218750
2438,74.218750
2439,74.218750
2440,74.218750
2441,70.312500
2442,70.312500
2443,70.312500
2444,70.312500
2445,70.312500
2446,70.312500
2447,70.312500
2448,66.406250
2449,66.406250
2450,66.406250
2451,66.406250
2452,66.406250
2453,66.406250
2454,66.406250
2455,62.500000
2456,62.500000
2457,62.500000
2458,62.500000
2459,62.500000
2460,62.500000
2461,58.593750
2462,58.593750
2463,58.593750
2464,58.593750
2465,58.593750
2466,54.687500
2467,54.687500
2468,54.687500
2469,54.687500
2470,54.687500
2471,54.687500
2472,54.687500
2473,50.781250
2474,50.781250
2475,50.781250
2476,50.781250
2477,50.781250
2478,46.875000
2479,46.875000
2480,46.875000
2481,46.875000
2482,46.875000
2483,46.875000
2484,42.968750
2485,42.968750
2486,42.968750
2487,42.968750
2488,42.968750
2489,42.968750
2490,39.062500
2491,39.062500
2492,39.062500
2493,39.062500
2494,39.062500
2495,35.156250
2496,35.156250
2497,35.156250
2498,35.156250
2499,35.156250
2500,31.250000
2501,31.250000
2502,31.250000
2503,31.250000
2504,31.250000
2505,27.343750
2506,27.343750
2507,27.343750
2508,27.343750
2509,27.343750
2510,27.343750
2511,23.437500
2512,23.437500
2513,23.437500
2514,23.437500
2515,23.437500
2516,19.531250
2517,19.531250
2518,19.531250
2519,19.531250
2520,15.625000
2521,15.625000
2522,15.625000
2523,15.625000
2524,15.625000
2525,15.625000
2526,11.718750
2527,11.718750
2528,11.718750
2529,11.718750
2530,7.812500
2531,7.812500
2532,7.812500
2533,7.812500
2534,3.906250
2535,3.906250
2536,3.906250
2537,3.906250
2538,0.000000
2539,0.000000
2540,0.000000
2541,0.000000
2542,0.000000
2543,0.000000
2544,-3.906250
2545,-3.906250
2546,-3.906250
2547,-3.906250
2548,-7.812500
2549,-7.812500
2550,-7.812500
2551,-7.812500
2552,-7.812500
2553,-11.718750
2554,-11.718750
2555,-11.718750
2556,-11.718750
2557,-15.625000
2558,-11.718750
2559,-15.625000
2560,-15.625000
2561,-15.625000
2562,-19.531250
2563,-19.531250
2564,-19.531250
2565,-19.531250
2566,-19.531250
2567,-23.437500
2568,-23.437500
2569,-23.437500
2570,-23.437500
2571,-27.343750
2572,-27.343750
2573,-27.343750
2574,-27.343750
2575,-27.343750
2576,-27.343750
2577,-31.250000
2578,-31.250000
2579,-31.250000
2580,-31.250000
2581,-35.156250
2582,-35.156250
2583,-35.156250
2584,-35.156250
2585,-35.156250
2586,-39.062500
2587,-39.062500
2588,-39.062500
2589,-39.062500
2590,-42.968750
2591,-42.968750
2592,-42.968750
2593,-42.968750
2594,-42.968750
2595,-46.875000
2596,-46.875000
2597,-46.875000
2598,-46.875000
2599,-46.875000
2600,-50.781250
2601,-50.781250
2602,-50.781250
2603,-54.687500
2604,-54.687500
2605,-54.687500
2606,-54.687500
2607,-54.687500
2608,-54.687500
2609,-58.593750
2610,-58.593750
2611,-58.593750
2612,-58.593750
2613,-62.500000
2614,-62.500000
2615,-62.500000
2616,-62.500000
2617,-62.500000
2618,-66.406250
2619,-62.500000
2620,-66.406250
2621,-66.406250
2622,-66.406250
2623,-70.312500
2624,-70.312500
2625,-70.312500
2626,-70.312500
2627,-70.312500
2628,-74.218750
2629,-74.218750
2630,-74.218750
2631,-74.218750
2632,-74.218750
2633,-78.125000
2634,-78.125000
2635,-78.125000
2636,-78.125000
2637,-78.125000
2638,-82.031250
2639,-82.031250
2640,-82.031250
2641,-82.031250
2642,-82.031250
2643,-85.937500
2644,-85.937500
2645,-85.937500
2646,-85.937500
2647,-85.937500
2648,-89.843750
2649,-89.843750
2650,-89.843750
2651,-89.843750
2652,-89.843750
2653,-89.843750
2654,-89.843750
2655,-93.750000
2656,-93.750000
2657,-93.750000
2658,-93.750000
2659,-97.656250
2660,-97.656250
2661,-97.656250
2662,-97.656250
2663,-97.656250
2664,-97.656250
2665,-97.656250
2666,-101.562500
2667,-101.562500
2668,-101.562500
2669,-101.562500
2670,-101.562500
2671,-105.468750
2672,-105.468750
2673,-105.468750
2674,-105.468750
2675,-105.468750
2676,-109.375000
2677,-109.375000
2678,-109.375000
2679,-109.375000
2680,-109.375000
2681,-109.375000
2682,-109.375000
2683,-109.375000
2684,-113.281250
2685,-113.281250
2686,-113.281250
2687,-113.281250
2688,-113.281250
2689,-113.281250
2690,-117.187500
2691,-117.187500
2692,-117.187500
2693,-117.187500
2694,-117.187500
2695,-117.187500
2696,-121.093750
2697,-121.093750
2698,-121.093750
2699,-121.093750
2700,-121.093750
2701,-121.093750
2702,-121.093750
2703,-125.000000
2704,-125.000000
2705,-125.000000
2706,-125.000000
2707,-125.000000
2708,-125.000000
2709,-125.000000
2710,-125.000000
2711,-128.906250
2712,-128.906250
2713,-128.906250
2714,-128.906250
2715,-128.906250
2716,-128.906250
2717,-128.906250
2718,-128.906250
2719,-128.906250
2720,-132.812500
2721,-132.812500
2722,-132.812500
2723,-132.812500
2724,-132.812500
2725,-132.812500
2726,-132.812500
2727,-132.812500
2728,-132.812500
2729,-132.812500
2730,-136.718750
2731,-136.718750
2732,-136.718750
2733,-136.718750
2734,-136.718750
2735,-136.718750
2736,-136.718750
2737,-136.718750
2738,-136.718750
2739,-136.718750
2740,-140.625000
2741,-136.718750
2742,-140.625000
2743,-140.625000
2744,-140.625000
2745,-140.625000
2746,-140.625000
2747,-140.625000
2748,-140.625000
2749,-140.625000
2750,-144.531250
2751,-140.625000
2752,-144.531250
2753,-144.531250
2754,-144.531250
2755,-144.531250
2756,-144.531250
2757,-144.531250
2758,-144.531250
2759,-144.531250
2760,-144.531250
2761,-144.531250
2762,-144.531250
2763,-144.531250
2764,-144.531250
2765,-144.531250
2766,-144.531250
2767,-144.531250
2768,-144.531250
2769,-144.531250
2770,-144.531250
2771,-144.531250
2772,-144.531250
2773,-148.437500
2774,-144.531250
2775,-148.437500
2776,-148.437500
2777,-148.437500
2778,-148.437500
2779,-148.437500
2780,-148.437500
2781,-148.437500
2782,-148.437500
2783,-148.437500
2784,-148.437500
2785,-148.437500
2786,-148.437500
2787,-148.437500
2788,-148.437500
2789,-148.437500
2790,-148.437500
2791,-148.437500
2792,-148.437500
2793,-148.437500
2794,-148.437500
2795,-148.437500
2796,-148.437500
2797,-148.437500
2798,-148.437500
2799,-148.437500
2800,-148.437500
2801,-148.437500
2802,-148.437500
2803,-148.437500
2804,-148.437500
2805,-148.437500
2806,-148.437500
2807,-148.437500
2808,-148.437500
2809,-148.437500
2810,-148.437500
2811,-148.437500
2812,-148.437500
2813,-148.437500
2814,-148.437500
2815,-148.437500
2816,-148.437500
2817,-148.437500
2818,-148.437500
2819,-148.437500
2820,-148.437500
2821,-148.437500
2822,-148.437500
2823,-148.437500
2824,-144.531250
2825,-144.531250
2826,-144.531250
2827,-144.531250
2828,-144.531250
2829,-144.531250
2830,-144.531250
2831,-144.531250
2832,-144.531250
2833,-144.531250
2834,-144.531250
2835,-144.531250
2836,-144.531250
2837,-144.531250
2838,-144.531250
2839,-144.531250
2840,-144.531250
2841,-144.531250
2842,-140.625000
2843,-140.625000
2844,-140.625000
2845,-140.625000
2846,-140.625000
2847,-140.625000
2848,-140.625000
2849,-140.625000
2850,-140.625000
2851,-140.625000
2852,-140.625000
2853,-136.718750
2854,-136.718750
2855,-136.718750
2856,-136.718750
2857,-136.718750
2858,-136.718750
2859,-136.718750
2860,-136.718750
2861,-136.718750
2862,-136.718750
2863,-132.812500
2864,-132.812500
2865,-132.812500
2866,-132.812500
2867,-132.812500
2868,-132.812500
2869,-132.812500
2870,-132.812500
2871,-132.812500
2872,-132.812500
2873,-128.906250
2874,-128.906250
2875,-128.906250
2876,-128.906250
2877,-128.906250
2878,-128.906250
2879,-128.906250
2880,-128.906250
2881,-128.906250
2882,-125.000000
2883,-125.000000
2884,-125.000000
2885,-125.000000
2886,-125.000000
2887,-125.000000
2888,-125.000000
2889,-121.093750
2890,-121.093750
2891,-121.093750
2892,-121.093750
2893,-121.093750
2894,-121.093750
2895,-121.093750
2896,-117.187500
2897,-117.187500
2898,-117.187500
2899,-117.187500
2900,-117.187500
2901,-117.187500
2902,-117.187500
2903,-113.281250
2904,-113.281250
2905,-113.281250
2906,-113.281250
2907,-113.281250
2908,-113.281250
2909,-109.375000
2910,-109.375000
2911,-109.375000
2912,-109.375000
2913,-109.375000
2914,-109.375000
2915,-109.375000
2916,-109.375000
2917,-105.468750
2918,-105.468750
2919,-105.468750
2920,-105.468750
2921,-105.468750
2922,-101.562500
2923,-101.562500
2924,-101.562500
2925,-101.562500
2926,-101.562500
2927,-101.562500
2928,-97.656250
2929,-97.656250
2930,-97.656250
2931,-97.656250
2932,-97.656250
2933,-97.656250
2934,-93.750000
2935,-93.750000
2936,-93.750000
2937,-93.750000
2938,-93.750000
2939,-89.843750
2940,-89.843750
2941,-89.843750
2942,-89.843750
2943,-89.843750
2944,-89.843750
2945,-85.937500
2946,-85.937500
2947,-85.937500
2948,-85.937500
2949,-85.937500
2950,-85.937500
2951,-82.031250
2952,-82.031250
2953,-82.031250
2954,-82.031250
2955,-78.125000
2956,-78.125000
2957,-78.125000
2958,-78.125000
2959,-78.125000
2960,-78.125000
2961,-74.218750
2962,-74.218750
2963,-74.218750
2964,-74.218750
2965,-70.312500
2966,-70.312500
2967,-70.312500
2968,-70.312500
2969,-70.312500
2970,-70.312500
2971,-66.406250
2972,-66.406250
2973,-66.406250
2974,-66.406250
2975,-62.500000
2976,-62.500000
2977,-62.500000
2978,-62.500000
2979,-62.500000
2980,-62.500000
2981,-58.593750
2982,-58.593750
2983,-58.593750
2984,-58.593750
2985,-54.687500
2986,-54.687500
2987,-54.687500
2988,-54.687500
2989,-50.781250
2990,-50.781250
2991,-50.781250
2992,-50.781250
2993,-50.781250
2994,-46.875000
2995,-46.875000
2996,-46.875000
2997,-46.875000
2998,-46.875000
2999,-42.968750
3000,-42.968750
3001,-42.968750
3002,-42.968750
3003,-39.062500
3004,-39.062500
3005,-39.062500
3006,-39.062500
3007,-39.062500
3008,-35.156250
3009,-35.156250
3010,-35.156250
3011,-35.156250
3012,-35.156250
3013,-31.250000
3014,-31.250000
3015,-31.250000
3016,-31.250000
3017,-31.250000
3018,-27.343750
3019,-27.343750
3020,-27.343750
3021,-27.343750
3022,-23.437500
3023,-23.437500
3024,-23.437500
3025,-23.437500
3026,-23.437500
3027,-19.531250
3028,-19.531250
3029,-19.531250
3030,-19.531250
3031,-15.625000
3032,-15.625000
3033,-15.625000
3034,-15.625000
3035,-15.625000
3036,-15.625000
3037,-11.718750
3038,-11.718750
3039,-11.718750
3040,-7.812500
3041,-7.812500
3042,-7.812500
3043,-7.812500
3044,-7.812500
3045,-7.812500
3046,-3.906250
3047,-3.906250
3048,-3.906250
3049,-3.906250
3050,-3.906250
3051,0.000000
3052,0.000000
3053,0.000000
3054,0.000000
3055,3.906250
3056,3.906250
3057,3.906250
3058,3.906250
3059,3.906250
3060,7.812500
3061,7.812500
3062,7.812500
3063,7.812500
3064,7.812500
3065,11.718750
3066,11.718750
3067,11.718750
3068,11.718750
3069,11.718750
3070,15.625000
3071,15.625000
3072,15.625000
3073,15.625000
3074,15.625000
3075,19.531250
3076,19.531250
3077,19.531250
3078,19.531250
3079,23.437500
3080,23.437500
3081,23.437500
3082,23.437500
3083,23.437500
3084,23.437500
3085,27.343750
3086,27.343750
3087,27.343750
3088,27.343750
3089,27.343750
3090,31.250000
3091,31.250000
3092,31.250000
3093,31.250000
3094,31.250000
3095,35.156250
3096,35.156250
3097,35.156250
3098,35.156250
3099,35.156250
3100,39.062500
3101,39.062500
3102,39.062500
3103,39.062500
3104,39.062500
3105,42.968750
3106,42.968750
3107,42.968750
3108,42.968750
3109,42.968750
3110,42.968750
3111,46.875000
3112,46.875000
3113,46.875000
3114,46.875000
3115,46.875000
3116,46.875000
3117,50.781250
3118,50.781250
3119,50.781250
3120,50.781250
3121,50.781250
3122,54.687500
3123,54.687500
3124,54.687500
3125,54.687500
3126,54.687500
3127,54.687500
3128,58.593750
3129,58.593750
3130,58.593750
3131,58.593750
3132,58.593750
3133,62.500000
3134,62.500000
3135,62.500000
3136,62.500000
3137,62.500000
3138,62.500000
3139,62.500000
3140,66.406250
3141,66.406250
3142,66.406250
3143,66.406250
3144,66.406250
3145,66.406250
3146,66.406250
3147,70.312500
3148,70.312500
3149,70.312500
3150,70.312500
3151,70.312500
3152,70.312500
3153,74.218750
3154,74.218750
3155,74.218750
3156,74.218750
3157,74.218750
3158,74.218750
3159,74.218750
3160,74.218750
3161,78.125000
3162,78.125000
3163,78.125000
3164,78.125000
3165,78.125000
3166,78.125000
3167,78.125000
3168,78.125000
3169,82.031250
3170,82.031250
3171,82.031250
3172,82.031250
3173,82.031250
3174,82.031250
3175,82.031250
3176,85.937500
3177,85.937500
3178,85.937500
3179,85.937500
3180,85.937500
3181,85.937500
3182,89.843750
3183,85.937500
3184,85.937500
3185,89.843750
3186,89.843750
3187,89.843750
3188,89.843750
3189,89.843750
3190,89.843750
3191,89.843750
3192,89.843750
3193,89.843750
3194,93.750000
3195,93.750000
3196,93.750000
3197,93.750000
3198,93.750000
3199,93.750000
3200,93.750000
3201,93.750000
3202,93.750000
3203,93.750000
3204,93.750000
3205,97.656250
3206,97.656250
3207,97.656250
3208,97.656250
3209,97.656250
3210,97.656250
3211,97.656250
3212,97.656250
3213,97.656250
3214,97.656250
3215,101.562500
3216,97.656250
3217,101.562500
3218,101.562500
3219,101.562500
3220,101.562500
3221,101.562500
3222,101.562500
3223,101.562500
3224,101.562500
3225,101.562500
3226,101.562500
3227,101.562500
3228,101.562500
3229,101.562500
3230,105.468750
3231,105.468750
3232,105.468750
3233,105.468750
3234,105.468750
3235,105.468750
3236,105.468750
3237,105.468750
3238,105.468750
3239,105.468750
3240,105.468750
3241,105.468750
3242,105.468750
3243,109.375000
3244,105.468750
3245,105.468750
3246,105.468750
3247,105.468750
3248,109.375000
3249,109.375000
3250,109.375000
3251,109.375000
3252,109.375000
3253,109.375000
3254,109.375000
3255,109.375000
3256,109.375000
3257,109.375000
3258,109.375000
3259,109.375000
3260,109.375000
3261,109.375000
3262,109.375000
3263,109.375000
3264,109.375000
3265,109.375000
3266,109.375000
3267,109.375000
3268,109.375000
3269,109.375000
3270,109.375000
3271,109.375000
3272,109.375000
3273,113.281250
3274,113.281250
3275,113.281250
3276,113.281250
3277,113.281250
3278,113.281250
3279,113.281250
3280,113.281250
3281,113.281250
3282,113.281250
3283,117.187500
3284,113.281250
3285,113.281250
3286,113.281250
3287,113.281250
3288,113.281250
3289,113.281250
3290,113.281250
3291,113.281250
3292,113.281250
3293,113.281250
3294,113.281250
3295,113.281250
3296,113.281250
3297,113.281250
3298,113.281250
3299,113.281250
3300,113.281250
3301,113.281250
3302,113.281250
3303,113.281250
3304,113.281250
3305,113.281250
3306,109.375000
3307,113.281250
3308,109.375000
3309,109.375000
3310,109.375000
3311,109.375000
3312,113.281250
3313,109.375000
3314,113.281250
3315,109.375000
3316,109.375000
3317,109.375000
3318,109.375000
3319,109.375000
3320,109.375000
3321,109.375000
3322,109.375000
3323,109.375000
3324,109.375000
3325,109.375000
3326,109.375000
3327,109.375000
3328,109.375000
3329,109.375000
3330,109.375000
3331,109.375000
3332,109.375000
3333,109.375000
3334,109.375000
3335,109.375000
3336,109.375000
3337,109.375000
3338,105.468750
3339,105.468750
3340,105.468750
3341,105.468750
3342,105.468750
3343,105.468750
3344,105.468750
3345,105.468750
3346,105.468750
3347,105.468750
3348,105.468750
3349,101.562500
3350,101.562500
3351,105.468750
3352,105.468750
3353,105.468750
3354,105.468750
3355,101.562500
3356,101.562500
3357,101.562500
3358,101.562500
3359,101.562500
3360,101.562500
3361,101.562500
3362,101.562500
3363,101.562500
3364,101.562500
3365,101.562500
3366,101.562500
3367,101.562500
3368,101.562500
3369,101.562500
3370,97.656250
3371,97.656250
3372,97.656250
3373,97.656250
3374,97.656250
3375,97.656250
3376,97.656250
3377,97.656250
3378,97.656250
3379,93.750000
3380,97.656250
3381,97.656250
3382,97.656250
3383,93.750000
3384,93.750000
3385,93.750000
3386,93.750000
3387,93.750000
3388,93.750000
3389,93.750000
3390,93.750000
3391,93.750000
3392,93.750000
3393,89.843750
3394,89.843750
3395,89.843750
3396,89.843750
3397,89.843750
3398,89.843750
3399,89.843750
3400,85.937500
3401,89.843750
3402,85.937500
3403,85.937500
3404,85.937500
3405,85.937500
3406,85.937500
3407,85.937500
3408,82.031250
3409,85.937500
3410,82.031250
3411,82.031250
3412,82.031250
3413,82.031250
3414,82.031250
3415,82.031250
3416,82.031250
3417,78.125000
3418,78.125000
3419,78.125000
3420,78.125000
3421,78.125000
3422,78.125000
3423,78.125000
3424,74.218750
3425,74.218750
3426,74.218750
3427,74.218750
3428,74.218750
3429,74.218750
3430,74.218750
3431,74.218750
3432,70.312500
3433,70.312500
3434,70.312500
3435,70.312500
3436,70.312500
3437,70.312500
3438,66.406250
3439,66.406250
3440,66.406250
3441,66.406250
3442,66.406250
3443,66.406250
3444,62.500000
3445,62.500000
3446,62.500000
3447,62.500000
3448,62.500000
3449,62.500000
3450,62.500000
3451,58.593750
3452,58.593750
3453,58.593750
3454,58.593750
3455,58.593750
3456,54.687500
3457,54.687500
3458,54.687500
3459,54.687500
3460,54.687500
3461,54.687500
3462,54.687500
3463,50.781250
3464,50.781250
3465,50.781250
3466,50.781250
3467,50.781250
3468,46.875000
3469,46.875000
3470,46.875000
3471,46.875000
3472,46.875000
3473,42.968750
3474,42.968750
3475,42.968750
3476,42.968750
3477,42.968750
3478,39.062500
3479,39.062500
3480,39.062500
3481,39.062500
3482,39.062500
3483,39.062500
3484,35.156250
3485,39.062500
3486,35.156250
3487,35.156250
3488,35.156250
3489,35.156250
3490,31.250000
3491,31.250000
3492,31.250000
3493,31.250000
3494,27.343750
3495,27.343750
3496,27.343750
3497,27.343750
3498,27.343750
3499,27.343750
3500,27.343750
3501,23.437500
3502,23.437500
3503,23.437500
3504,19.531250
3505,19.531250
3506,19.531250
3507,19.531250
3508,19.531250
3509,19.531250
3510,15.625000
3511,15.625000
3512,15.625000
3513,15.625000
3514,15.625000
3515,11.718750
3516,11.718750
3517,11.718750
3518,11.718750
3519,11.718750
3520,7.812500
3521,7.812500
3522,7.812500
3523,7.812500
3524,3.906250
3525,3.906250
3526,3.906250
3527,3.906250
3528,3.906250
3529,0.000000
3530,0.000000
3531,0.000000
3532,0.000000
3533,0.000000
3534,-3.906250
3535,-3.906250
3536,-3.906250
3537,-3.906250
3538,-3.906250
3539,-7.812500
3540,-7.812500
3541,-7.812500
3542,-7.812500
3543,-11.718750
3544,-11.718750
3545,-11.718750
3546,-11.718750
3547,-11.718750
3548,-15.625000
3549,-15.625000
3550,-15.625000
3551,-15.625000
3552,-15.625000
3553,-19.531250
3554,-19.531250
3555,-19.531250
3556,-19.531250
3557,-19.531250
3558,-23.437500
3559,-23.437500
3560,-23.437500
3561,-23.437500
3562,-27.343750
3563,-27.343750
3564,-27.343750
3565,-27.343750
3566,-31.250000
3567,-31.250000
3568,-31.250000
3569,-31.250000
3570,-31.250000
3571,-31.250000
3572,-35.156250
3573,-35.156250
3574,-35.156250
3575,-39.062500
3576,-39.062500
3577,-39.062500
3578,-39.062500
3579,-39.062500
3580,-39.062500
3581,-39.062500
3582,-42.968750
3583,-42.968750
3584,-46.875000
3585,-46.875000
3586,-46.875000
3587,-46.875000
3588,-46.875000
3589,-46.875000
3590,-50.781250
3591,-50.781250
3592,-50.781250
3593,-50.781250
3594,-54.687500
3595,-54.687500
3596,-54.687500
3597,-54.687500
3598,-54.687500
3599,-58.593750
3600,-58.593750
3601,-58.593750
3602,-58.593750
3603,-62.500000
3604,-62.500000
3605,-62.500000
3606,-62.500000
3607,-62.500000
3608,-62.500000
3609,-66.406250
3610,-66.406250
3611,-66.406250
3612,-66.406250
3613,-70.312500
3614,-70.312500
3615,-70.312500
3616,-70.312500
3617,-70.312500
3618,-74.218750
3619,-74.218750
3620,-74.218750
3621,-74.218750
3622,-74.218750
3623,-78.125000
3624,-78.125000
3625,-78.125000
3626,-78.125000
3627,-78.125000
3628,-82.031250
3629,-82.031250
3630,-82.031250
3631,-82.031250
3632,-82.031250
3633,-85.937500
3634,-85.937500
3635,-85.937500
3636,-85.937500
3637,-85.937500
3638,-85.937500
3639,-89.843750
3640,-89.843750
3641,-89.843750
3642,-89.843750
3643,-89.843750
3644,-93.750000
3645,-93.750000
3646,-93.750000
3647,-93.750000
3648,-93.750000
3649,-97.656250
3650,-97.656250
3651,-97.656250
3652,-97.656250
3653,-97.656250
3654,-101.562500
3655,-101.562500
3656,-101.562500
3657,-101.562500
3658,-101.562500
3659,-101.562500
3660,-101.562500
3661,-101.562500
3662,-105.468750
3663,-105.468750
3664,-105.468750
3665,-105.468750
3666,-105.468750
3667,-105.468750
3668,-109.375000
3669,-109.375000
3670,-109.375000
3671,-109.375000
3672,-109.375000
3673,-109.375000
3674,-113.281250
3675,-113.281250
3676,-113.281250
3677,-113.281250
3678,-113.281250
3679,-113.281250
3680,-117.187500
3681,-117.187500
3682,-117.187500
3683,-117.187500
3684,-117.187500
3685,-117.187500
3686,-117.187500
3687,-121.093750
3688,-121.093750
3689,-121.093750
3690,-121.093750
3691,-121.093750
3692,-121.093750
3693,-121.093750
3694,-121.093750
3695,-125.000000
3696,-125.000000
3697,-125.000000
3698,-125.000000
3699,-125.000000
3700,-125.000000
3701,-125.000000
3702,-128.906250
3703,-128.906250
3704,-128.906250
3705,-128.906250
3706,-128.906250
3707,-128.906250
3708,-128.906250
3709,-128.906250
3710,-132.812500
3711,-132.812500
3712,-132.812500
3713,-132.812500
3714,-132.812500
3715,-132.812500
3716,-132.812500
3717,-132.812500
3718,-132.812500
3719,-132.812500
3720,-136.718750
3721,-136.718750
3722,-136.718750
3723,-136.718750
3724,-136.718750
3725,-136.718750
3726,-136.718750
3727,-136.718750
3728,-136.718750
3729,-136.718750
3730,-140.625000
3731,-140.625000
3732,-140.625000
3733,-140.625000
3734,-140.625000
3735,-140.625000
3736,-140.625000
3737,-140.625000
3738,-140.625000
3739,-140.625000
3740,-140.625000
3741,-140.625000
3742,-140.625000
3743,-140.625000
3744,-144.531250
3745,-144.531250
3746,-144.531250
3747,-144.531250
3748,-144.531250
3749,-144.531250
3750,-144.531250
3751,-144.531250
3752,-144.531250
3753,-144.531250
3754,-144.531250
3755,-144.531250
3756,-144.531250
3757,-144.531250
3758,-144.531250
3759,-144.531250
3760,-144.531250
3761,-144.531250
3762,-144.531250
3763,-148.437500
3764,-148.437500
3765,-148.437500
3766,-148.437500
3767,-148.437500
3768,-144.531250
3769,-148.437500
3770,-148.437500
3771,-148.437500
3772,-148.437500
3773,-148.437500
3774,-148.437500
3775,-148.437500
3776,-148.437500
3777,-148.437500
3778,-148.437500
3779,-148.437500
3780,-148.437500
3781,-148.437500
3782,-148.437500
3783,-148.437500
3784,-148.437500
3785,-148.437500
3786,-148.437500
3787,-148.437500
3788,-148.437500
3789,-148.437500
3790,-148.437500
3791,-148.437500
3792,-148.437500
3793,-148.437500
3794,-148.437500
3795,-148.437500
3796,-148.437500
3797,-148.437500
3798,-148.437500
3799,-148.437500
3800,-148.437500
3801,-148.437500
3802,-148.437500
3803,-148.437500
3804,-148.437500
3805,-148.437500
3806,-144.531250
3807,-148.437500
3808,-144.531250
3809,-144.531250
3810,-144.531250
3811,-144.531250
3812,-144.531250
3813,-144.531250
3814,-144.531250
3815,-144.531250
3816,-144.531250
3817,-144.531250
3818,-144.531250
3819,-144.531250
3820,-144.531250
3821,-144.531250
3822,-144.531250
3823,-144.531250
3824,-144.531250
3825,-144.531250
3826,-144.531250
3827,-144.531250
3828,-144.531250
3829,-140.625000
3830,-140.625000
3831,-140.625000
3832,-140.625000
3833,-140.625000
3834,-140.625000
3835,-140.625000
3836,-140.625000
3837,-140.625000
3838,-140.625000
3839,-140.625000
3840,-140.625000
3841,-140.625000
3842,-140.625000
3843,-140.625000
3844,-140.625000
3845,-136.718750
3846,-136.718750
3847,-136.718750
3848,-136.718750
3849,-136.718750
3850,-136.718750
3851,-136.718750
3852,-136.718750
3853,-136.718750
3854,-136.718750
3855,-136.718750
3856,-132.812500
3857,-132.812500
3858,-132.812500
3859,-132.812500
3860,-132.812500
3861,-132.812500
3862,-132.812500
3863,-132.812500
3864,-132.812500
3865,-128.906250
3866,-128.906250
3867,-128.906250
3868,-128.906250
3869,-128.906250
3870,-128.906250
3871,-128.906250
3872,-128.906250
3873,-125.000000
3874,-125.000000
3875,-125.000000
3876,-125.000000
3877,-125.000000
3878,-125.000000
3879,-121.093750
3880,-121.093750
3881,-121.093750
3882,-121.093750
3883,-121.093750
3884,-121.093750
3885,-121.093750
3886,-121.093750
3887,-117.187500
3888,-117.187500
3889,-117.187500
3890,-117.187500
3891,-117.187500
3892,-117.187500
3893,-117.187500
3894,-113.281250
3895,-113.281250
3896,-113.281250
3897,-113.281250
3898,-113.281250
3899,-113.281250
3900,-113.281250
3901,-109.375000
3902,-109.375000
3903,-109.375000
3904,-109.375000
3905,-109.375000
3906,-105.468750
3907,-105.468750
3908,-105.468750
3909,-105.468750
3910,-105.468750
3911,-105.468750
3912,-105.468750
3913,-101.562500
3914,-101.562500
3915,-101.562500
3916,-101.562500
3917,-101.562500
3918,-97.656250
3919,-97.656250
3920,-97.656250
3921,-97.656250
3922,-97.656250
3923,-97.656250
3924,-93.750000
3925,-93.750000
3926,-93.750000
3927,-93.750000
3928,-89.843750
3929,-89.843750
3930,-89.843750
3931,-89.843750
3932,-89.843750
3933,-89.843750
3934,-89.843750
3935,-85.937500
3936,-85.937500
3937,-85.937500
3938,-85.937500
3939,-82.031250
3940,-82.031250
3941,-82.031250
3942,-82.031250
3943,-82.031250
3944,-82.031250
3945,-78.125000
3946,-78.125000
3947,-78.125000
3948,-78.125000
3949,-78.125000
3950,-74.218750
3951,-74.218750
3952,-74.218750
3953,-74.218750
3954,-74.218750
3955,-70.312500
3956,-70.312500
3957,-70.312500
3958,-70.312500
3959,-70.312500
3960,-66.406250
3961,-66.406250
3962,-66.406250
3963,-66.406250
3964,-66.406250
3965,-66.406250
3966,-62.500000
3967,-62.500000
3968,-62.500000
3969,-58.593750
3970,-58.593750
3971,-58.593750
3972,-58.593750
3973,-58.593750
3974,-54.687500
3975,-54.687500
3976,-54.687500
3977,-54.687500
3978,-54.687500
3979,-54.687500
3980,-50.781250
3981,-50.781250
3982,-50.781250
3983,-50.781250
3984,-50.781250
3985,-46.875000
3986,-46.875000
3987,-46.875000
3988,-46.875000
3989,-42.968750
3990,-42.968750
3991,-42.968750
3992,-42.968750
3993,-42.968750
3994,-39.062500
3995,-39.062500
3996,-39.062500
3997,-39.062500
3998,-39.062500
3999,-35.156250
4000,-35.156250
4001,-35.156250
4002,-35.156250
4003,-31.250000
4004,-31.250000
4005,-31.250000
4006,-31.250000
4007,-31.250000
4008,-27.343750
4009,-27.343750
4010,-27.343750
4011,-23.437500
4012,-23.437500
4013,-23.437500
4014,-23.437500
4015,-23.437500
4016,-23.437500
4017,-19.531250
4018,-19.531250
4019,-19.531250
4020,-19.531250
4021,-15.625000
4022,-15.625000
4023,-15.625000
4024,-15.625000
4025,-15.625000
4026,-11.718750
4027,-11.718750
4028,-11.718750
4029,-11.718750
4030,-7.812500
4031,-7.812500
4032,-7.812500
4033,-7.812500
4034,-7.812500
4035,-7.812500
4036,-3.906250
4037,-3.906250
4038,-3.906250
4039,0.000000
4040,0.000000
4041,0.000000
4042,0.000000
4043,0.000000
4044,0.000000
4045,0.000000
4046,3.906250
4047,3.906250
4048,3.906250
4049,7.812500
4050,7.812500
4051,11.718750
4052,7.812500
4053,7.812500
4054,7.812500
4055,11.718750
4056,11.718750
4057,11.718750
4058,11.718750
4059,15.625000
4060,15.625000
4061,15.625000
4062,15.625000
4063,15.625000
4064,15.625000
4065,19.531250
4066,19.531250
4067,19.531250
4068,19.531250
4069,19.531250
4070,23.437500
4071,23.437500
4072,23.437500
4073,23.437500
4074,27.343750
4075,27.343750
4076,27.343750
4077,27.343750
4078,27.343750
4079,31.250000
4080,31.250000
4081,31.250000
4082,31.250000
4083,31.250000
4084,31.250000
4085,35.156250
4086,35.156250
4087,35.156250
4088,35.156250
4089,39.062500
4090,39.062500
4091,39.062500
4092,39.062500
4093,39.062500
4094,39.062500
4095,42.968750
4096,42.968750
4097,42.968750
4098,42.968750
4099,42.968750
4100,42.968750
4101,46.875000
4102,46.875000
4103,46.875000
4104,46.875000
4105,46.875000
4106,46.875000
4107,50.781250
4108,50.781250
4109,50.781250
4110,50.781250
4111,50.781250
4112,54.687500
4113,54.687500
4114,54.687500
4115,54.687500
4116,54.687500
4117,54.687500
4118,54.687500
4119,58.593750
4120,58.593750
4121,58.593750
4122,58.593750
4123,58.593750
4124,58.593750
4125,62.500000
4126,62.500000
4127,62.500000
4128,62.500000
4129,62.500000
4130,62.500000
4131,66.406250
4132,66.406250
4133,66.406250
4134,66.406250
4135,66.406250
4136,70.312500
4137,70.312500
4138,70.312500
4139,70.312500
4140,70.312500
4141,70.312500
4142,70.312500
4143,70.312500
4144,74.218750
4145,74.218750
4146,74.218750
4147,74.218750
4148,74.218750
4149,74.218750
4150,74.218750
4151,78.125000
4152,78.125000
4153,78.125000
4154,78.125000
4155,78.125000
4156,78.125000
4157,78.125000
4158,78.125000
4159,82.031250
4160,82.031250
4161,82.031250
4162,82.031250
4163,82.031250
4164,82.031250
4165,82.031250
4166,85.937500
4167,85.937500
4168,85.937500
4169,85.937500
4170,85.937500
4171,85.937500
4172,85.937500
4173,85.937500
4174,89.843750
4175,89.843750
4176,89.843750
4177,89.843750
4178,89.843750
4179,89.843750
4180,89.843750
4181,89.843750
4182,89.843750
4183,89.843750
4184,93.750000
4185,93.750000
4186,93.750000
4187,93.750000
4188,93.750000
4189,93.750000
4190,93.750000
4191,93.750000
4192,93.750000
4193,97.656250
4194,93.750000
4195,97.656250
4196,97.656250
4197,97.656250
4198,97.656250
4199,97.656250
4200,97.656250
4201,97.656250
4202,97.656250
4203,97.656250
4204,97.656250
4205,101.562500
4206,97.656250
4207,101.562500
4208,101.562500
4209,101.562500
4210,101.562500
4211,101.562500
4212,101.562500
4213,101.562500
4214,101.562500
4215,101.562500
4216,101.562500
4217,101.562500
4218,101.562500
4219,105.468750
4220,105.468750
4221,105.468750
4222,105.468750
4223,105.468750
4224,105.468750
4225,105.468750
4226,105.468750
4227,105.468750
4228,105.468750
4229,105.468750
4230,105.468750
4231,105.468750
4232,105.468750
4233,105.468750
4234,105.468750
4235,105.468750
4236,109.375000
4237,109.375000
4238,109.375000
4239,109.375000
4240,109.375000
4241,109.375000
4242,109.375000
4243,109.375000
4244,109.375000
4245,109.375000
4246,109.375000
4247,109.375000
4248,109.375000
4249,109.375000
4250,109.375000
4251,109.375000
4252,109.375000
4253,109.375000
4254,109.375000
4255,109.375000
4256,109.375000
4257,109.375000
4258,109.375000
4259,109.375000
4260,109.375000
4261,109.375000
4262,113.281250
4263,113.281250
4264,109.375000
4265,109.375000
4266,109.375000
4267,113.281250
4268,109.375000
4269,113.281250
4270,113.281250
4271,113.281250
4272,113.281250
4273,113.281250
4274,113.281250
4275,113.281250
4276,109.375000
4277,109.375000
4278,113.281250
4279,113.281250
4280,113.281250
4281,113.281250
4282,113.281250
4283,113.281250
4284,113.281250
4285,113.281250
4286,113.281250
4287,113.281250
4288,113.281250
4289,113.281250
4290,113.281250
4291,113.281250
4292,113.281250
4293,113.281250
4294,113.281250
4295,113.281250
4296,113.281250
4297,109.375000
4298,109.375000
4299,113.281250
4300,109.375000
4301,109.375000
4302,113.281250
4303,109.375000
4304,109.375000
4305,109.375000
4306,113.281250
4307,109.375000
4308,113.281250
4309,109.375000
4310,109.375000
4311,109.375000
4312,109.375000
4313,109.375000
4314,109.375000
4315,109.375000
4316,109.375000
4317,109.375000
4318,109.375000
4319,109.375000
4320,109.375000
4321,109.375000
4322,109.375000
4323,109.375000
4324,109.375000
4325,109.375000
4326,109.375000
4327,109.375000
4328,109.375000
4329,109.375000
4330,105.468750
4331,109.375000
4332,105.468750
4333,105.468750
4334,105.468750
4335,105.468750
4336,105.468750
4337,105.468750
4338,105.468750
4339,105.468750
4340,105.468750
4341,105.468750
4342,105.468750
4343,105.468750
4344,105.468750
4345,105.468750
4346,105.468750
4347,101.562500
4348,105.468750
4349,101.562500
4350,101.562500
4351,101.562500
4352,101.562500
4353,101.562500
4354,101.562500
4355,101.562500
4356,101.562500
4357,101.562500
4358,101.562500
4359,101.562500
4360,97.656250
4361,97.656250
4362,97.656250
4363,97.656250
4364,97.656250
4365,97.656250
4366,97.656250
4367,97.656250
4368,97.656250
4369,97.656250
4370,97.656250
4371,97.656250
4372,93.750000
4373,93.750000
4374,93.750000
4375,93.750000
4376,93.750000
4377,93.750000
4378,93.750000
4379,93.750000
4380,93.750000
4381,93.750000
4382,89.843750
4383,89.843750
4384,89.843750
4385,89.843750
4386,89.843750
4387,89.843750
4388,89.843750
4389,89.843750
4390,85.937500
4391,85.937500
4392,85.937500
4393,85.937500
4394,85.937500
4395,85.937500
4396,82.031250
4397,85.937500
4398,85.937500
4399,82.031250
4400,82.031250
4401,82.031250
4402,82.031250
4403,82.031250
4404,82.031250
4405,82.031250
4406,78.125000
4407,78.125000
4408,78.125000
4409,78.125000
4410,78.125000
4411,78.125000
4412,78.125000
4413,78.125000
4414,74.218750
4415,74.218750
4416,74.218750
4417,74.218750
4418,74.218750
4419,74.218750
4420,74.218750
4421,74.218750
4422,70.312500
4423,70.312500
4424,70.312500
4425,70.312500
4426,70.312500
4427,70.312500
4428,70.312500
4429,66.406250
4430,66.406250
4431,66.406250
4432,66.406250
4433,62.500000
4434,62.500000
4435,62.500000
4436,62.500000
4437,62.500000
4438,62.500000
4439,62.500000
4440,62.500000
4441,62.500000
4442,58.593750
4443,58.593750
4444,58.593750
4445,58.593750
4446,58.593750
4447,54.687500
4448,54.687500
4449,54.687500
4450,54.687500
4451,54.687500
4452,50.781250
4453,54.687500
4454,50.781250
4455,50.781250
4456,50.781250
4457,50.781250
4458,50.781250
4459,46.875000
4460,46.875000
4461,46.875000
4462,46.875000
4463,46.875000
4464,42.968750
4465,42.968750
4466,42.968750
4467,42.968750
4468,42.968750
4469,42.968750
4470,39.062500
4471,39.062500
4472,39.062500
4473,39.062500
4474,39.062500
4475,35.156250
4476,35.156250
4477,35.156250
4478,35.156250
4479,35.156250
4480,31.250000
4481,31.250000
4482,31.250000
4483,31.250000
4484,27.343750
4485,27.343750
4486,27.343750
4487,27.343750
4488,27.343750
4489,23.437500
4490,23.437500
4491,23.437500
4492,23.437500
4493,23.437500
4494,23.437500
4495,19.531250
4496,19.531250
4497,19.531250
4498,19.531250
4499,15.625000
4500,15.625000
4501,15.625000
4502,15.625000
4503,15.625000
4504,15.625000
4505,11.718750
4506,11.718750
4507,11.718750
4508,11.718750
4509,7.812500
4510,7.812500
4511,7.812500
4512,7.812500
4513,7.812500
4514,3.906250
4515,3.906250
4516,3.906250
4517,3.906250
4518,3.906250
4519,0.000000
4520,0.000000
4521,0.000000
4522,0.000000
4523,0.000000
4524,-3.906250
4525,-3.906250
4526,-3.906250
4527,-3.906250
4528,-3.906250
4529,-7.812500
4530,-7.812500
4531,-7.812500
4532,-7.812500
4533,-11.718750
4534,-11.718750
4535,-11.718750
4536,-11.718750
4537,-11.718750
4538,-15.625000
4539,-15.625000
4540,-15.625000
4541,-15.625000
4542,-19.531250
4543,-19.531250
4544,-19.531250
4545,-19.531250
4546,-19.531250
4547,-23.437500
4548,-23.437500
4549,-23.437500
4550,-23.437500
4551,-23.437500
4552,-27.343750
4553,-27.343750
4554,-27.343750
4555,-27.343750
4556,-31.250000
4557,-31.250000
4558,-31.250000
4559,-31.250000
4560,-35.156250
4561,-35.156250
4562,-35.156250
4563,-35.156250
4564,-35.156250
4565,-39.062500
4566,-39.062500
4567,-39.062500
4568,-39.062500
4569,-39.062500
4570,-42.968750
4571,-42.968750
4572,-42.968750
4573,-42.968750
4574,-42.968750
4575,-46.875000
4576,-46.875000
4577,-46.875000
4578,-46.875000
4579,-50.781250
4580,-50.781250
4581,-50.781250
4582,-50.781250
4583,-50.781250
4584,-54.687500
4585,-54.687500
4586,-54.687500
4587,-54.687500
4588,-54.687500
4589,-58.593750
4590,-58.593750
4591,-58.593750
4592,-58.593750
4593,-62.500000
4594,-62.500000
4595,-62.500000
4596,-62.500000
4597,-62.500000
4598,-66.406250
4599,-66.406250
4600,-66.406250
4601,-66.406250
4602,-66.406250
4603,-70.312500
4604,-70.312500
4605,-70.312500
4606,-70.312500
4607,-74.218750
4608,-74.218750
4609,-74.218750
4610,-74.218750
4611,-74.218750
4612,-78.125000
4613,-78.125000
4614,-78.125000
4615,-78.125000
4616,-78.125000
4617,-78.125000
4618,-82.031250
4619,-82.031250
4620,-82.031250
4621,-82.031250
4622,-82.031250
4623,-85.937500
4624,-85.937500
4625,-85.937500
4626,-85.937500
4627,-85.937500
4628,-89.843750
4629,-89.843750
4630,-89.843750
4631,-89.843750
4632,-89.843750
4633,-93.750000
4634,-93.750000
4635,-93.750000
4636,-93.750000
4637,-93.750000
4638,-93.750000
4639,-97.656250
4640,-97.656250
4641,-97.656250
4642,-97.656250
4643,-97.656250
4644,-101.562500
4645,-101.562500
4646,-101.562500
4647,-101.562500
4648,-101.562500
4649,-101.562500
4650,-105.468750
4651,-105.468750
4652,-105.468750
4653,-105.468750
4654,-105.468750
4655,-105.468750
4656,-105.468750
4657,-109.375000
4658,-109.375000
4659,-109.375000
4660,-109.375000
4661,-109.375000
4662,-113.281250
4663,-113.281250
4664,-113.281250
4665,-113.281250
4666,-113.281250
4667,-113.281250
4668,-113.281250
4669,-117.187500
4670,-117.187500
4671,-117.187500
4672,-117.187500
4673,-117.187500
4674,-117.187500
4675,-117.187500
4676,-121.093750
4677,-121.093750
4678,-121.093750
4679,-121.093750
4680,-121.093750
4681,-121.093750
4682,-125.000000
4683,-121.093750
4684,-125.000000
4685,-125.000000
4686,-125.000000
4687,-125.000000
4688,-125.000000
4689,-125.000000
4690,-125.000000
4691,-128.906250
4692,-128.906250
4693,-128.906250
4694,-128.906250
4695,-128.906250
4696,-128.906250
4697,-128.906250
4698,-128.906250
4699,-128.906250
4700,-132.812500
4701,-132.812500
4702,-132.812500
4703,-132.812500
4704,-132.812500
4705,-132.812500
4706,-132.812500
4707,-132.812500
4708,-132.812500
4709,-136.718750
4710,-136.718750
4711,-136.718750
4712,-136.718750
4713,-136.718750
4714,-136.718750
4715,-136.718750
4716,-136.718750
4717,-136.718750
4718,-136.718750
4719,-136.718750
4720,-136.718750
4721,-136.718750
4722,-140.625000
4723,-140.625000
4724,-140.625000
4725,-140.625000
4726,-140.625000
4727,-140.625000
4728,-140.625000
4729,-140.625000
4730,-140.625000
4731,-140.625000
4732,-140.625000
4733,-144.531250
4734,-144.531250
4735,-140.625000
4736,-144.531250
4737,-144.531250
4738,-144.531250
4739,-144.531250
4740,-144.531250
4741,-144.531250
4742,-144.531250
4743,-144.531250
4744,-144.531250
4745,-144.531250
4746,-144.531250
4747,-144.531250
4748,-144.531250
4749,-144.531250
4750,-144.531250
4751,-144.531250
4752,-144.531250
4753,-148.437500
4754,-148.437500
4755,-148.437500
4756,-144.531250
4757,-148.437500
4758,-148.437500
4759,-148.437500
4760,-148.437500
4761,-148.437500
4762,-148.437500
4763,-148.437500
4764,-148.437500
4765,-148.437500
4766,-148.437500
4767,-148.437500
4768,-148.437500
4769,-148.437500
4770,-148.437500
4771,-148.437500
4772,-148.437500
4773,-148.437500
4774,-148.437500
4775,-148.437500
4776,-148.437500
4777,-148.437500
4778,-148.437500
4779,-148.437500
4780,-148.437500
4781,-148.437500
4782,-148.437500
4783,-148.437500
4784,-148.437500
4785,-148.437500
4786,-148.437500
4787,-148.437500
4788,-148.437500
4789,-148.437500
4790,-148.437500
4791,-148.437500
4792,-148.437500
4793,-148.437500
4794,-144.531250
4795,-148.437500
4796,-148.437500
4797,-144.531250
4798,-148.437500
4799,-148.437500
4800,-144.531250
4801,-144.531250
4802,-144.531250
4803,-144.531250
4804,-144.531250
4805,-144.531250
4806,-144.531250
4807,-144.531250
4808,-144.531250
4809,-144.531250
4810,-144.531250
4811,-144.531250
4812,-144.531250
4813,-144.531250
4814,-144.531250
4815,-144.531250
4816,-144.531250
4817,-144.531250
4818,-144.531250
4819,-144.531250
4820,-140.625000
4821,-144.531250
4822,-140.625000
4823,-140.625000
4824,-140.625000
4825,-140.625000
4826,-140.625000
4827,-140.625000
4828,-140.625000
4829,-140.625000
4830,-140.625000
4831,-140.625000
4832,-140.625000
4833,-136.718750
4834,-140.625000
4835,-136.718750
4836,-136.718750
4837,-136.718750
4838,-136.718750
4839,-136.718750
4840,-140.625000
4841,-136.718750
4842,-136.718750
4843,-136.718750
4844,-132.812500
4845,-132.812500
4846,-132.812500
4847,-132.812500
4848,-132.812500
4849,-132.812500
4850,-132.812500
4851,-132.812500
4852,-132.812500
4853,-128.906250
4854,-128.906250
4855,-128.906250
4856,-128.906250
4857,-128.906250
4858,-128.906250
4859,-125.000000
4860,-128.906250
4861,-125.000000
4862,-125.000000
4863,-125.000000
4864,-125.000000
4865,-125.000000
4866,-125.000000
4867,-125.000000
4868,-121.093750
4869,-121.093750
4870,-121.093750
4871,-121.093750
4872,-121.093750
4873,-121.093750
4874,-121.093750
4875,-121.093750
4876,-117.187500
4877,-117.187500
4878,-117.187500
4879,-117.187500
4880,-117.187500
4881,-117.187500
4882,-113.281250
4883,-113.281250
4884,-113.281250
4885,-113.281250
4886,-113.281250
4887,-113.281250
4888,-113.281250
4889,-113.281250
4890,-109.375000
4891,-109.375000
4892,-109.375000
4893,-109.375000
4894,-109.375000
4895,-109.375000
4896,-105.468750
4897,-105.468750
4898,-105.468750
4899,-105.468750
4900,-105.468750
4901,-105.468750
4902,-105.468750
4903,-101.562500
4904,-101.562500
4905,-101.562500
4906,-101.562500
4907,-97.656250
4908,-97.656250
4909,-97.656250
4910,-97.656250
4911,-97.656250
4912,-97.656250
4913,-93.750000
4914,-93.750000
4915,-93.750000
4916,-93.750000
4917,-93.750000
4918,-93.750000
4919,-89.843750
4920,-89.843750
4921,-89.843750
4922,-89.843750
4923,-89.843750
4924,-89.843750
4925,-85.937500
4926,-85.937500
4927,-85.937500
4928,-85.937500
4929,-85.937500
4930,-82.031250
4931,-82.031250
4932,-82.031250
4933,-82.031250
4934,-82.031250
4935,-78.125000
4936,-78.125000
4937,-78.125000
4938,-78.125000
4939,-74.218750
4940,-74.218750
4941,-74.218750
4942,-74.218750
4943,-74.218750
4944,-74.218750
4945,-70.312500
4946,-70.312500
4947,-70.312500
4948,-70.312500
4949,-70.312500
4950,-66.406250
4951,-66.406250
4952,-66.406250
4953,-66.406250
4954,-66.406250
4955,-62.500000
4956,-62.500000
4957,-62.500000
4958,-62.500000
4959,-58.593750
4960,-58.593750
4961,-58.593750
4962,-58.593750
4963,-58.593750
4964,-54.687500
4965,-54.687500
4966,-54.687500
4967,-54.687500
4968,-54.687500
4969,-50.781250
4970,-50.781250
4971,-50.781250
4972,-50.781250
4973,-46.875000
4974,-46.875000
4975,-46.875000
4976,-46.875000
4977,-46.875000
4978,-42.968750
4979,-42.968750
4980,-42.968750
4981,-42.968750
4982,-42.968750
4983,-39.062500
4984,-39.062500
4985,-39.062500
4986,-39.062500
4987,-39.062500
4988,-35.156250
4989,-35.156250
4990,-35.156250
4991,-35.156250
4992,-35.156250
4993,-31.250000
4994,-31.250000
4995,-31.250000
4996,-27.343750
4997,-27.343750
4998,-27.343750
4999,-27.343750
5000,-27.343750
5001,-23.437500
5002,-27.343750
5003,-23.437500
5004,-23.437500
5005,-19.531250
5006,-19.531250
5007,-19.531250
5008,-19.531250
5009,-19.531250
5010,-19.531250
5011,-15.625000
5012,-15.625000
5013,-15.625000
5014,-15.625000
5015,-15.625000
5016,-11.718750
5017,-11.718750
5018,-11.718750
5019,-11.718750
5020,-7.812500
5021,-7.812500
5022,-7.812500
5023,-7.812500
5024,-7.812500
5025,-3.906250
5026,-3.906250
5027,-3.906250
5028,-3.906250
5029,-3.906250
5030,0.000000
5031,0.000000
5032,0.000000
5033,0.000000
5034,0.000000
5035,3.906250
5036,3.906250
5037,3.906250
5038,7.812500
5039,7.812500
5040,7.812500
5041,7.812500
5042,7.812500
5043,7.812500
5044,7.812500
5045,11.718750
5046,11.718750
5047,11.718750
5048,15.625000
5049,15.625000
5050,15.625000
5051,15.625000
5052,15.625000
5053,15.625000
5054,19.531250
5055,19.531250
5056,19.531250
5057,19.531250
5058,19.531250
5059,23.437500
5060,23.437500
5061,23.437500
5062,23.437500
5063,27.343750
5064,27.343750
5065,27.343750
5066,27.343750
5067,27.343750
5068,27.343750
5069,31.250000
5070,31.250000
5071,31.250000
5072,31.250000
5073,31.250000
5074,35.156250
5075,35.156250
5076,35.156250
5077,35.156250
5078,35.156250
5079,39.062500
5080,39.062500
5081,39.062500
5082,39.062500
5083,39.062500
5084,39.062500
5085,42.968750
5086,42.968750
5087,42.968750
5088,42.968750
5089,42.968750
5090,42.968750
5091,46.875000
5092,46.875000
5093,46.875000
5094,46.875000
5095,50.781250
5096,50.781250
5097,50.781250
5098,50.781250
5099,50.781250
5100,50.781250
5101,50.781250
5102,54.687500
5103,54.687500
5104,54.687500
5105,54.687500
5106,58.593750
5107,58.593750
5108,58.593750
5109,58.593750
5110,58.593750
5111,58.593750
5112,58.593750
5113,62.500000
5114,62.500000
5115,62.500000
5116,62.500000
5117,62.500000
5118,62.500000
5119,62.500000
5120,62.500000
5121,66.406250
5122,66.406250
5123,66.406250
5124,66.406250
5125,66.406250
5126,66.406250
5127,70.312500
5128,70.312500
5129,70.312500
5130,70.312500
5131,70.312500
5132,70.312500
5133,74.218750
5134,74.218750
5135,74.218750
5136,74.218750
5137,74.218750
5138,74.218750
5139,74.218750
5140,74.218750
5141,78.125000
5142,78.125000
5143,78.125000
5144,78.125000
5145,78.125000
5146,78.125000
5147,78.125000
5148,78.125000
5149,82.031250
5150,82.031250
5151,82.031250
5152,82.031250
5153,82.031250
5154,82.031250
5155,82.031250
5156,82.031250
5157,85.937500
5158,85.937500
5159,85.937500
5160,85.937500
5161,85.937500
5162,85.937500
5163,85.937500
5164,85.937500
5165,89.843750
5166,89.843750
5167,89.843750
5168,89.843750
5169,89.843750
5170,89.843750
5171,89.843750
5172,89.843750
5173,89.843750
5174,89.843750
5175,93.750000
5176,93.750000
5177,93.750000
5178,93.750000
5179,93.750000
5180,93.750000
5181,93.750000
5182,93.750000
5183,93.750000
5184,97.656250
5185,97.656250
5186,97.656250
5187,97.656250
5188,97.656250
5189,97.656250
5190,97.656250
5191,97.656250
5192,97.656250
5193,97.656250
5194,97.656250
5195,101.562500
5196,101.562500
5197,101.562500
5198,101.562500
5199,101.562500
5200,101.562500
5201,101.562500
5202,101.562500
5203,101.562500
5204,101.562500
5205,101.562500
5206,101.562500
5207,101.562500
5208,105.468750
5209,105.468750
5210,101.562500
5211,105.468750
5212,105.468750
5213,101.562500
5214,105.468750
5215,105.468750
5216,105.468750
5217,105.468750
5218,105.468750
5219,105.468750
5220,105.468750
5221,105.468750
5222,105.468750
5223,105.468750
5224,105.468750
5225,105.468750
5226,105.468750
5227,109.375000
5228,109.375000
5229,109.375000
5230,109.375000
5231,109.375000
5232,109.375000
5233,109.375000
5234,109.375000
5235,109.375000
5236,109.375000
5237,109.375000
5238,109.375000
5239,109.375000
5240,109.375000
5241,109.375000
5242,109.375000
5243,109.375000
5244,109.375000
5245,113.281250
5246,109.375000
5247,109.375000
5248,109.375000
5249,109.375000
5250,109.375000
5251,113.281250
5252,109.375000
5253,109.375000
5254,113.281250
5255,113.281250
5256,113.281250
5257,113.281250
5258,109.375000
5259,109.375000
5260,113.281250
5261,109.375000
5262,109.375000
5263,109.375000
5264,113.281250
5265,113.281250
5266,113.281250
5267,113.281250
5268,113.281250
5269,109.375000
5270,113.281250
5271,113.281250
5272,113.281250
5273,113.281250
5274,113.281250
5275,113.281250
5276,113.281250
5277,113.281250
5278,113.281250
5279,109.375000
5280,109.375000
5281,113.281250
5282,109.375000
5283,113.281250
5284,113.281250
5285,113.281250
5286,113.281250
5287,109.375000
5288,109.375000
5289,109.375000
5290,109.375000
5291,113.281250
5292,109.375000
5293,113.281250
5294,109.375000
5295,109.375000
5296,109.375000
5297,109.375000
5298,109.375000
5299,109.375000
5300,109.375000
5301,109.375000
5302,109.375000
5303,109.375000
5304,109.375000
5305,109.375000
5306,109.375000
5307,109.375000
5308,109.375000
5309,109.375000
5310,109.375000
5311,109.375000
5312,109.375000
5313,109.375000
5314,109.375000
5315,109.375000
5316,109.375000
5317,109.375000
5318,109.375000
5319,105.468750
5320,105.468750
5321,105.468750
5322,105.468750
5323,105.468750
5324,105.468750
5325,105.468750
5326,105.468750
5327,105.468750
5328,105.468750
5329,105.468750
5330,105.468750
5331,105.468750
5332,105.468750
5333,105.468750
5334,105.468750
5335,105.468750
5336,105.468750
5337,105.468750
5338,101.562500
5339,101.562500
5340,101.562500
5341,101.562500
5342,101.562500
5343,101.562500
5344,101.562500
5345,101.562500
5346,101.562500
5347,101.562500
5348,101.562500
5349,101.562500
5350,101.562500
5351,97.656250
5352,97.656250
5353,97.656250
5354,97.656250
5355,97.656250
5356,97.656250
5357,97.656250
5358,97.656250
5359,97.656250
5360,93.750000
5361,93.750000
5362,93.750000
5363,93.750000
5364,93.750000
5365,93.750000
5366,93.750000
5367,93.750000
5368,93.750000
5369,93.750000
5370,89.843750
5371,89.843750
5372,89.843750
5373,89.843750
5374,89.843750
5375,89.843750
5376,89.843750
5377,89.843750
5378,89.843750
5379,89.843750
5380,85.937500
5381,85.937500
5382,85.937500
5383,85.937500
5384,85.937500
5385,85.937500
5386,85.937500
5387,85.937500
5388,82.031250
5389,82.031250
5390,82.031250
5391,82.031250
5392,82.031250
5393,82.031250
5394,82.031250
5395,82.031250
5396,78.125000
5397,78.125000
5398,78.125000
5399,78.125000
5400,78.125000
5401,78.125000
5402,78.125000
5403,78.125000
5404,74.218750
5405,78.125000
5406,74.218750
5407,74.218750
5408,74.218750
5409,74.218750
5410,70.312500
5411,70.312500
5412,70.312500
5413,70.312500
5414,70.312500
5415,70.312500
5416,70.312500
5417,70.312500
5418,66.406250
5419,66.406250
5420,66.406250
5421,66.406250
5422,66.406250
5423,66.406250
5424,62.500000
5425,62.500000
5426,62.500000
5427,62.500000
5428,62.500000
5429,62.500000
5430,58.593750
5431,58.593750
5432,58.593750
5433,58.593750
5434,58.593750
5435,58.593750
5436,58.593750
5437,54.687500
5438,54.687500
5439,54.687500
5440,54.687500
5441,54.687500
5442,50.781250
5443,50.781250
5444,50.781250
5445,50.781250
5446,50.781250
5447,50.781250
5448,46.875000
5449,46.875000
5450,46.875000
5451,46.875000
5452,46.875000
5453,46.875000
5454,42.968750
5455,42.968750
5456,42.968750
5457,42.968750
5458,42.968750
5459,39.062500
5460,39.062500
5461,39.062500
5462,39.062500
5463,39.062500
5464,39.062500
5465,35.156250
5466,35.156250
5467,35.156250
5468,35.156250
5469,35.156250
5470,31.250000
5471,31.250000
5472,31.250000
5473,31.250000
5474,31.250000
5475,27.343750
5476,27.343750
5477,27.343750
5478,27.343750
5479,27.343750
5480,23.437500
5481,23.437500
5482,23.437500
5483,23.437500
5484,23.437500
5485,19.531250
5486,23.437500
5487,19.531250
5488,19.531250
5489,19.531250
5490,15.625000
5491,15.625000
5492,15.625000
5493,15.625000
5494,15.625000
5495,11.718750
5496,11.718750
5497,11.718750
5498,7.812500
5499,7.812500
5500,7.812500
5501,7.812500
5502,7.812500
5503,7.812500
5504,7.812500
5505,3.906250
5506,3.906250
5507,3.906250
5508,3.906250
5509,0.000000
5510,0.000000
5511,0.000000
5512,0.000000
5513,0.000000
5514,-3.906250
5515,-3.906250
5516,-3.906250
5517,-3.906250
5518,-7.812500
5519,-7.812500
5520,-7.812500
5521,-7.812500
5522,-7.812500
5523,-11.718750
5524,-11.718750
5525,-11.718750
5526,-11.718750
5527,-11.718750
5528,-15.625000
5529,-15.625000
5530,-15.625000
5531,-15.625000
5532,-19.531250
5533,-19.531250
5534,-19.531250
5535,-19.531250
5536,-19.531250
5537,-23.437500
5538,-23.437500
5539,-23.437500
5540,-23.437500
5541,-27.343750
5542,-27.343750
5543,-27.343750
5544,-27.343750
5545,-27.343750
5546,-31.250000
5547,-31.250000
5548,-31.250000
5549,-31.250000
5550,-35.156250
5551,-35.156250
5552,-35.156250
5553,-35.156250
5554,-35.156250
5555,-39.062500
5556,-39.062500
5557,-39.062500
5558,-39.062500
5559,-42.968750
5560,-42.968750
5561,-42.968750
5562,-42.968750
5563,-42.968750
5564,-42.968750
5565,-42.968750
5566,-46.875000
5567,-46.875000
5568,-50.781250
5569,-50.781250
5570,-50.781250
5571,-50.781250
5572,-50.781250
5573,-50.781250
5574,-54.687500
5575,-54.687500
5576,-54.687500
5577,-54.687500
5578,-58.593750
5579,-54.687500
5580,-58.593750
5581,-58.593750
5582,-58.593750
5583,-62.500000
5584,-62.500000
5585,-62.500000
5586,-62.500000
5587,-66.406250
5588,-66.406250
5589,-66.406250
5590,-66.406250
5591,-66.406250
5592,-66.406250
5593,-70.312500
5594,-70.312500
5595,-70.312500
5596,-70.312500
5597,-74.218750
5598,-74.218750
5599,-74.218750
5600,-74.218750
5601,-74.218750
5602,-74.218750
5603,-78.125000
5604,-78.125000
5605,-78.125000
5606,-78.125000
5607,-78.125000
5608,-82.031250
5609,-82.031250
5610,-82.031250
5611,-82.031250
5612,-82.031250
5613,-85.937500
5614,-85.937500
5615,-85.937500
5616,-85.937500
5617,-85.937500
5618,-89.843750
5619,-89.843750
5620,-89.843750
5621,-89.843750
5622,-89.843750
5623,-93.750000
5624,-93.750000
5625,-93.750000
5626,-93.750000
5627,-93.750000
5628,-93.750000
5629,-97.656250
5630,-97.656250
5631,-97.656250
5632,-97.656250
5633,-97.656250
5634,-97.656250
5635,-101.562500
5636,-101.562500
5637,-101.562500
5638,-101.562500
5639,-101.562500
5640,-101.562500
5641,-105.468750
5642,-105.468750
5643,-105.468750
5644,-105.468750
5645,-105.468750
5646,-105.468750
5647,-109.375000
5648,-109.375000
5649,-109.375000
5650,-109.375000
5651,-109.375000
5652,-109.375000
5653,-113.281250
5654,-113.281250
5655,-113.281250
5656,-113.281250
5657,-113.281250
5658,-117.187500
5659,-117.187500
5660,-117.187500
5661,-117.187500
5662,-117.187500
5663,-117.187500
5664,-117.187500
5665,-117.187500
5666,-117.187500
5667,-121.093750
5668,-121.093750
5669,-121.093750
5670,-121.093750
5671,-121.093750
5672,-121.093750
5673,-121.093750
5674,-125.000000
5675,-125.000000
5676,-125.000000
5677,-125.000000
5678,-125.000000
5679,-125.000000
5680,-128.906250
5681,-125.000000
5682,-128.906250
5683,-128.906250
5684,-128.906250
5685,-128.906250
5686,-128.906250
5687,-128.906250
5688,-128.906250
5689,-132.812500
5690,-132.812500
5691,-132.812500
5692,-132.812500
5693,-132.812500
5694,-132.812500
5695,-132.812500
5696,-132.812500
5697,-132.812500
5698,-132.812500
5699,-136.718750
5700,-136.718750
5701,-136.718750
5702,-136.718750
5703,-136.718750
5704,-136.718750
5705,-136.718750
5706,-136.718750
5707,-136.718750
5708,-140.625000
5709,-140.625000
5710,-140.625000
5711,-136.718750
5712,-140.625000
5713,-140.625000
5714,-140.625000
5715,-140.625000
5716,-140.625000
5717,-140.625000
5718,-140.625000
5719,-140.625000
5720,-144.531250
5721,-140.625000
5722,-140.625000
5723,-144.531250
5724,-144.531250
5725,-144.531250
5726,-144.531250
5727,-144.531250
5728,-144.531250
5729,-144.531250
5730,-144.531250
5731,-144.531250
5732,-144.531250
5733,-144.531250
5734,-144.531250
5735,-144.531250
5736,-144.531250
5737,-144.531250
5738,-144.531250
5739,-144.531250
5740,-144.531250
5741,-144.531250
5742,-144.531250
5743,-148.437500
5744,-144.531250
5745,-144.531250
5746,-148.437500
5747,-148.437500
5748,-148.437500
5749,-148.437500
5750,-148.437500
5751,-148.437500
5752,-148.437500
5753,-148.437500
5754,-148.437500
5755,-148.437500
5756,-148.437500
5757,-148.437500
5758,-148.437500
5759,-148.437500
5760,-148.437500
5761,-148.437500
5762,-148.437500
5763,-148.437500
5764,-148.437500
5765,-148.437500
5766,-148.437500
5767,-148.437500
5768,-148.437500
5769,-148.437500
5770,-148.437500
5771,-148.437500
5772,-148.437500
5773,-148.437500
5774,-148.437500
5775,-148.437500
5776,-148.437500
5777,-148.437500
5778,-148.437500
5779,-148.437500
5780,-148.437500
5781,-148.437500
5782,-148.437500
5783,-148.437500
5784,-148.437500
5785,-148.437500
5786,-148.437500
5787,-148.437500
5788,-144.531250
5789,-148.437500
5790,-148.437500
5791,-144.531250
5792,-144.531250
5793,-144.531250
5794,-144.531250
5795,-144.531250
5796,-144.531250
5797,-144.531250
5798,-144.531250
5799,-144.531250
5800,-144.531250
5801,-144.531250
5802,-144.531250
5803,-144.531250
5804,-144.531250
5805,-144.531250
5806,-144.531250
5807,-144.531250
5808,-144.531250
5809,-144.531250
5810,-144.531250
5811,-140.625000
5812,-140.625000
5813,-140.625000
5814,-140.625000
5815,-140.625000
5816,-140.625000
5817,-140.625000
5818,-140.625000
5819,-140.625000
5820,-140.625000
5821,-140.625000
5822,-140.625000
5823,-140.625000
5824,-140.625000
5825,-136.718750
5826,-136.718750
5827,-136.718750
5828,-136.718750
5829,-136.718750
5830,-136.718750
5831,-136.718750
5832,-136.718750
5833,-136.718750
5834,-132.812500
5835,-132.812500
5836,-132.812500
5837,-132.812500
5838,-132.812500
5839,-132.812500
5840,-132.812500
5841,-132.812500
5842,-132.812500
5843,-128.906250
5844,-128.906250
5845,-128.906250
5846,-128.906250
5847,-128.906250
5848,-128.906250
5849,-128.906250
5850,-125.000000
5851,-125.000000
5852,-125.000000
5853,-125.000000
5854,-125.000000
5855,-125.000000
5856,-125.000000
5857,-125.000000
5858,-125.000000
5859,-125.000000
5860,-121.093750
5861,-121.093750
5862,-121.093750
5863,-121.093750
5864,-121.093750
5865,-121.093750
5866,-121.093750
5867,-117.187500
5868,-117.187500
5869,-117.187500
5870,-117.187500
5871,-117.187500
5872,-113.281250
5873,-113.281250
5874,-113.281250
5875,-113.281250
5876,-113.281250
5877,-113.281250
5878,-113.281250
5879,-113.281250
5880,-109.375000
5881,-109.375000
5882,-109.375000
5883,-109.375000
5884,-109.375000
5885,-109.375000
5886,-105.468750
5887,-105.468750
5888,-105.468750
5889,-105.468750
5890,-105.468750
5891,-105.468750
5892,-101.562500
5893,-101.562500
5894,-101.562500
5895,-101.562500
5896,-101.562500
5897,-101.562500
5898,-97.656250
5899,-97.656250
5900,-97.656250
5901,-97.656250
5902,-97.656250
5903,-93.750000
5904,-93.750000
5905,-93.750000
5906,-93.750000
5907,-93.750000
5908,-93.750000
5909,-93.750000
5910,-89.843750
5911,-89.843750
5912,-89.843750
5913,-89.843750
5914,-85.937500
5915,-85.937500
5916,-85.937500
5917,-85.937500
5918,-85.937500
5919,-82.031250
5920,-82.031250
5921,-82.031250
5922,-82.031250
5923,-82.031250
5924,-82.031250
5925,-78.125000
5926,-82.031250
5927,-78.125000
5928,-78.125000
5929,-78.125000
5930,-74.218750
5931,-74.218750
5932,-74.218750
5933,-74.218750
5934,-70.312500
5935,-70.312500
5936,-70.312500
5937,-70.312500
5938,-70.312500
5939,-70.312500
5940,-66.406250
5941,-66.406250
5942,-66.406250
5943,-66.406250
5944,-66.406250
5945,-62.500000
5946,-62.500000
5947,-62.500000
5948,-62.500000
5949,-62.500000
5950,-62.500000
5951,-58.593750
5952,-58.593750
5953,-58.593750
5954,-58.593750
5955,-54.687500
5956,-54.687500
5957,-54.687500
5958,-54.687500
5959,-50.781250
5960,-50.781250
5961,-50.781250
5962,-50.781250
5963,-50.781250
5964,-46.875000
5965,-46.875000
5966,-46.875000
5967,-46.875000
5968,-46.875000
5969,-42.968750
5970,-42.968750
5971,-42.968750
5972,-42.968750
5973,-42.968750
5974,-39.062500
5975,-39.062500
5976,-39.062500
5977,-39.062500
5978,-39.062500
5979,-35.156250
5980,-35.156250
5981,-35.156250
5982,-31.250000
5983,-31.250000
5984,-31.250000
5985,-31.250000
5986,-31.250000
5987,-27.343750
5988,-27.343750
5989,-27.343750
5990,-27.343750
5991,-23.437500
5992,-23.437500
5993,-23.437500
5994,-23.437500
5995,-23.437500
5996,-23.437500
5997,-19.531250
5998,-19.531250
5999,-19.531250
6000,-19.531250
6001,-15.625000
6002,-15.625000
6003,-15.625000
6004,-15.625000
6005,-11.718750
6006,-11.718750
6007,-11.718750
6008,-11.718750
6009,-11.718750
6010,-7.812500
6011,-7.812500
6012,-7.812500
6013,-7.812500
6014,-7.812500
6015,-3.906250
6016,-3.906250
6017,-3.906250
6018,-3.906250
6019,0.000000
6020,0.000000
6021,0.000000
6022,0.000000
6023,0.000000
6024,3.906250
6025,3.906250
6026,3.906250
6027,3.906250
6028,3.906250
6029,7.812500
6030,7.812500
6031,7.812500
6032,7.812500
6033,7.812500
6034,11.718750
6035,11.718750
6036,11.718750
6037,11.718750
6038,11.718750
6039,15.625000
6040,15.625000
6041,15.625000
6042,19.531250
6043,19.531250
6044,19.531250
6045,19.531250
6046,19.531250
6047,19.531250
6048,23.437500
6049,23.437500
6050,23.437500
6051,23.437500
6052,23.437500
6053,23.437500
6054,27.343750
6055,27.343750
6056,27.343750
6057,27.343750
6058,27.343750
6059,31.250000
6060,31.250000
6061,31.250000
6062,31.250000
6063,35.156250
6064,35.156250
6065,35.156250
6066,35.156250
6067,35.156250
6068,35.156250
6069,35.156250
6070,39.062500
6071,39.062500
6072,39.062500
6073,39.062500
6074,39.062500
6075,42.968750
6076,42.968750
6077,42.968750
6078,42.968750
6079,42.968750
6080,42.968750
6081,46.875000
6082,46.875000
6083,46.875000
6084,46.875000
6085,46.875000
6086,50.781250
6087,50.781250
6088,50.781250
6089,50.781250
6090,50.781250
6091,50.781250
6092,54.687500
6093,54.687500
6094,54.687500
6095,54.687500
6096,54.687500
6097,54.687500
6098,58.593750
6099,58.593750
6100,58.593750
6101,58.593750
6102,58.593750
6103,58.593750
6104,62.500000
6105,62.500000
6106,62.500000
6107,62.500000
6108,62.500000
6109,66.406250
6110,66.406250
6111,66.406250
6112,66.406250
6113,66.406250
6114,66.406250
6115,70.312500
6116,70.312500
6117,70.312500
6118,70.312500
6119,70.312500
6120,70.312500
6121,70.312500
6122,74.218750
6123,74.218750
6124,74.218750
6125,74.218750
6126,74.218750
6127,74.218750
6128,74.218750
6129,74.218750
6130,74.218750
6131,78.125000
6132,78.125000
6133,78.125000
6134,78.125000
6135,78.125000
6136,78.125000
6137,78.125000
6138,78.125000
6139,82.031250
6140,82.031250
6141,82.031250
6142,82.031250
6143,82.031250
6144,82.031250
6145,85.937500
6146,82.031250
6147,85.937500
6148,85.937500
6149,85.937500
6150,85.937500
6151,85.937500
6152,85.937500
6153,85.937500
6154,89.843750
6155,89.843750
6156,89.843750
6157,89.843750
6158,89.843750
6159,89.843750
6160,89.843750
6161,89.843750
6162,89.843750
6163,93.750000
6164,93.750000
6165,93.750000
6166,93.750000
6167,93.750000
6168,93.750000
6169,93.750000
6170,93.750000
6171,93.750000
6172,93.750000
6173,97.656250
6174,97.656250
6175,97.656250
6176,97.656250
6177,97.656250
6178,97.656250
6179,97.656250
6180,97.656250
6181,97.656250
6182,97.656250
6183,97.656250
6184,97.656250
6185,97.656250
6186,97.656250
6187,97.656250
6188,101.562500
6189,101.562500
6190,101.562500
6191,101.562500
6192,101.562500
6193,101.562500
6194,101.562500
6195,101.562500
6196,101.562500
6197,101.562500
6198,101.562500
6199,101.562500
6200,101.562500
6201,105.468750
6202,105.468750
6203,105.468750
6204,105.468750
6205,105.468750
6206,105.468750
6207,105.468750
6208,105.468750
6209,105.468750
6210,105.468750
6211,105.468750
6212,105.468750
6213,109.375000
6214,109.375000
6215,109.375000
6216,109.375000
6217,109.375000
6218,109.375000
6219,109.375000
6220,109.375000
6221,109.375000
6222,109.375000
6223,109.375000
6224,109.375000
6225,109.375000
6226,109.375000
6227,109.375000
6228,109.375000
6229,109.375000
6230,109.375000
6231,109.375000
6232,109.375000
6233,109.375000
6234,109.375000
6235,109.375000
6236,109.375000
6237,109.375000
6238,109.375000
6239,109.375000
6240,113.281250
6241,113.281250
6242,113.281250
6243,113.281250
6244,109.375000
6245,113.281250
6246,109.375000
6247,113.281250
6248,113.281250
6249,113.281250
6250,113.281250
6251,113.281250
6252,113.281250
6253,113.281250
6254,113.281250
6255,113.281250
6256,113.281250
6257,113.281250
6258,113.281250
6259,113.281250
6260,113.281250
6261,113.281250
6262,113.281250
6263,113.281250
6264,113.281250
6265,113.281250
6266,113.281250
6267,113.281250
6268,113.281250
6269,113.281250
6270,113.281250
6271,113.281250
6272,113.281250
6273,113.281250
6274,113.281250
6275,113.281250
6276,113.281250
6277,113.281250
6278,113.281250
6279,113.281250
6280,113.281250
6281,113.281250
6282,113.281250
6283,113.281250
6284,113.281250
6285,109.375000
6286,109.375000
6287,109.375000
6288,109.375000
6289,109.375000
6290,109.375000
6291,109.375000
6292,109.375000
6293,109.375000
6294,109.375000
6295,109.375000
6296,109.375000
6297,109.375000
6298,109.375000
6299,109.375000
6300,109.375000
6301,109.375000
6302,109.375000
6303,109.375000
6304,109.375000
6305,109.375000
6306,109.375000
6307,105.468750
6308,109.375000
6309,105.468750
6310,105.468750
6311,109.375000
6312,105.468750
6313,105.468750
6314,105.468750
6315,105.468750
6316,105.468750
6317,105.468750
6318,105.468750
6319,105.468750
6320,105.468750
6321,105.468750
6322,105.468750
6323,105.468750
6324,105.468750
6325,101.562500
6326,101.562500
6327,101.562500
6328,101.562500
6329,101.562500
6330,101.562500
6331,101.562500
6332,101.562500
6333,101.562500
6334,101.562500
6335,101.562500
6336,101.562500
6337,101.562500
6338,101.562500
6339,97.656250
6340,101.562500
6341,97.656250
6342,97.656250
6343,97.656250
6344,97.656250
6345,97.656250
6346,97.656250
6347,97.656250
6348,97.656250
6349,97.656250
6350,93.750000
6351,93.750000
6352,93.750000
6353,93.750000
6354,93.750000
6355,93.750000
6356,93.750000
6357,93.750000
6358,93.750000
6359,93.750000
6360,93.750000
6361,93.750000
6362,89.843750
6363,89.843750
6364,89.843750
6365,89.843750
6366,89.843750
6367,89.843750
6368,89.843750
6369,89.843750
6370,85.937500
6371,85.937500
6372,85.937500
6373,85.937500
6374,85.937500
6375,85.937500
6376,85.937500
6377,85.937500
6378,85.937500
6379,85.937500
6380,82.031250
6381,82.031250
6382,82.031250
6383,82.031250
6384,82.031250
6385,82.031250
6386,78.125000
6387,78.125000
6388,78.125000
6389,78.125000
6390,78.125000
6391,78.125000
6392,78.125000
6393,78.125000
6394,74.218750
6395,74.218750
6396,74.218750
6397,74.218750
6398,74.218750
6399,74.218750
6400,74.218750
6401,74.218750
6402,70.312500
6403,70.312500
6404,70.312500
6405,70.312500
6406,70.312500
6407,66.406250
6408,66.406250
6409,66.406250
6410,66.406250
6411,66.406250
6412,66.406250
6413,66.406250
6414,62.500000
6415,62.500000
6416,62.500000
6417,62.500000
6418,62.500000
6419,62.500000
6420,62.500000
6421,58.593750
6422,58.593750
6423,58.593750
6424,58.593750
6425,58.593750
6426,54.687500
6427,54.687500
6428,54.687500
6429,54.687500
6430,54.687500
6431,50.781250
6432,50.781250
6433,50.781250
6434,50.781250
6435,50.781250
6436,50.781250
6437,50.781250
6438,46.875000
6439,46.875000
6440,46.875000
6441,46.875000
6442,46.875000
6443,46.875000
6444,42.968750
6445,42.968750
6446,42.968750
6447,42.968750
6448,42.968750
6449,39.062500
6450,39.062500
6451,39.062500
6452,39.062500
6453,35.156250
6454,35.156250
6455,35.156250
6456,35.156250
6457,35.156250
6458,35.156250
6459,35.156250
6460,31.250000
6461,31.250000
6462,31.250000
6463,31.250000
6464,27.343750
6465,27.343750
6466,27.343750
6467,27.343750
6468,27.343750
6469,27.343750
6470,23.437500
6471,23.437500
6472,23.437500
6473,23.437500
6474,23.437500
6475,19.531250
6476,19.531250
6477,19.531250
6478,19.531250
6479,15.625000
6480,15.625000
6481,15.625000
6482,15.625000
6483,15.625000
6484,15.625000
6485,11.718750
6486,11.718750
6487,11.718750
6488,7.812500
6489,7.812500
6490,7.812500
6491,7.812500
6492,7.812500
6493,3.906250
6494,3.906250
6495,3.906250
6496,3.906250
6497,3.906250
6498,0.000000
6499,0.000000
6500,0.000000
6501,0.000000
6502,0.000000
6503,0.000000
6504,-3.906250
6505,-3.906250
6506,-3.906250
6507,-3.906250
6508,-7.812500
6509,-7.812500
6510,-7.812500
6511,-7.812500
6512,-7.812500
6513,-11.718750
6514,-11.718750
6515,-11.718750
6516,-11.718750
6517,-11.718750
6518,-15.625000
6519,-15.625000
6520,-15.625000
6521,-15.625000
6522,-19.531250
6523,-19.531250
6524,-19.531250
6525,-19.531250
6526,-23.437500
6527,-23.437500
6528,-23.437500
6529,-23.437500
6530,-23.437500
6531,-27.343750
6532,-27.343750
6533,-27.343750
6534,-27.343750
6535,-27.343750
6536,-31.250000
6537,-31.250000
6538,-31.250000
6539,-31.250000
6540,-31.250000
6541,-35.156250
6542,-35.156250
6543,-35.156250
6544,-35.156250
6545,-39.062500
6546,-39.062500
6547,-39.062500
6548,-39.062500
6549,-42.968750
6550,-42.968750
6551,-42.968750
6552,-42.968750
6553,-42.968750
6554,-46.875000
6555,-46.875000
6556,-46.875000
6557,-46.875000
6558,-46.875000
6559,-50.781250
6560,-50.781250
6561,-50.781250
6562,-50.781250
6563,-54.687500
6564,-54.687500
6565,-54.687500
6566,-54.687500
6567,-54.687500
6568,-58.593750
6569,-58.593750
6570,-58.593750
6571,-58.593750
6572,-58.593750
6573,-62.500000
6574,-62.500000
6575,-62.500000
6576,-62.500000
6577,-66.406250
6578,-62.500000
6579,-66.406250
6580,-66.406250
6581,-66.406250
6582,-66.406250
6583,-70.312500
6584,-70.312500
6585,-70.312500
6586,-74.218750
6587,-74.218750
6588,-74.218750
6589,-74.218750
6590,-74.218750
6591,-74.218750
6592,-78.125000
6593,-78.125000
6594,-78.125000
6595,-78.125000
6596,-78.125000
6597,-82.031250
6598,-82.031250
6599,-82.031250
6600,-82.031250
6601,-82.031250
6602,-82.031250
6603,-85.937500
6604,-85.937500
6605,-85.937500
6606,-85.937500
6607,-89.843750
6608,-89.843750
6609,-89.843750
6610,-89.843750
6611,-89.843750
6612,-93.750000
6613,-89.843750
6614,-93.750000
6615,-93.750000
6616,-97.656250
6617,-93.750000
6618,-93.750000
6619,-97.656250
6620,-97.656250
6621,-97.656250
6622,-97.656250
6623,-97.656250
6624,-101.562500
6625,-101.562500
6626,-101.562500
6627,-101.562500
6628,-101.562500
6629,-101.562500
6630,-101.562500
6631,-105.468750
6632,-105.468750
6633,-105.468750
6634,-105.468750
6635,-109.375000
6636,-109.375000
6637,-109.375000
6638,-109.375000
6639,-109.375000
6640,-109.375000
6641,-109.375000
6642,-109.375000
6643,-113.281250
6644,-113.281250
6645,-113.281250
6646,-113.281250
6647,-113.281250
6648,-113.281250
6649,-113.281250
6650,-117.187500
6651,-117.187500
6652,-117.187500
6653,-117.187500
6654,-117.187500
6655,-121.093750
6656,-121.093750
6657,-121.093750
6658,-121.093750
6659,-121.093750
6660,-121.093750
6661,-121.093750
6662,-121.093750
6663,-121.093750
6664,-125.000000
6665,-125.000000
6666,-125.000000
6667,-125.000000
6668,-125.000000
6669,-125.000000
6670,-125.000000
6671,-125.000000
6672,-128.906250
6673,-128.906250
6674,-128.906250
6675,-128.906250
6676,-128.906250
6677,-128.906250
6678,-132.812500
6679,-132.812500
6680,-132.812500
6681,-132.812500
6682,-132.812500
6683,-132.812500
6684,-132.812500
6685,-132.812500
6686,-132.812500
6687,-136.718750
6688,-136.718750
6689,-136.718750
6690,-136.718750
6691,-136.718750
6692,-136.718750
6693,-136.718750
6694,-136.718750
6695,-136.718750
6696,-136.718750
6697,-136.718750
6698,-140.625000
6699,-136.718750
6700,-140.625000
6701,-140.625000
6702,-140.625000
6703,-140.625000
6704,-140.625000
6705,-140.625000
6706,-140.625000
6707,-140.625000
6708,-140.625000
6709,-140.625000
6710,-140.625000
6711,-140.625000
6712,-140.625000
6713,-144.531250
6714,-144.531250
6715,-144.531250
6716,-144.531250
6717,-144.531250
6718,-144.531250
6719,-144.531250
6720,-144.531250
6721,-144.531250
6722,-144.531250
6723,-144.531250
6724,-144.531250
6725,-144.531250
6726,-144.531250
6727,-144.531250
6728,-144.531250
6729,-144.531250
6730,-144.531250
6731,-144.531250
6732,-148.437500
6733,-148.437500
6734,-148.437500
6735,-148.437500
6736,-148.437500
6737,-148.437500
6738,-148.437500
6739,-148.437500
6740,-148.437500
6741,-148.437500
6742,-148.437500
6743,-152.343750
6744,-148.437500
6745,-148.437500
6746,-148.437500
6747,-148.437500
6748,-148.437500
6749,-148.437500
6750,-148.437500
6751,-148.437500
6752,-152.343750
6753,-148.437500
6754,-148.437500
6755,-152.343750
6756,-148.437500
6757,-148.437500
6758,-148.437500
6759,-148.437500
6760,-148.437500
6761,-148.437500
6762,-148.437500
6763,-148.437500
6764,-148.437500
6765,-148.437500
6766,-148.437500
6767,-148.437500
6768,-148.437500
6769,-148.437500
6770,-148.437500
6771,-148.437500
6772,-148.437500
6773,-148.437500
6774,-148.437500
6775,-148.437500
6776,-148.437500
6777,-148.437500
6778,-144.531250
6779,-148.437500
6780,-144.531250
6781,-144.531250
6782,-144.531250
6783,-144.531250
6784,-144.531250
6785,-144.531250
6786,-144.531250
6787,-144.531250
6788,-144.531250
6789,-144.531250
6790,-144.531250
6791,-144.531250
6792,-144.531250
6793,-144.531250
6794,-144.531250
6795,-144.531250
6796,-144.531250
6797,-144.531250
6798,-144.531250
6799,-140.625000
6800,-140.625000
6801,-140.625000
6802,-140.625000
6803,-140.625000
6804,-140.625000
6805,-140.625000
6806,-140.625000
6807,-140.625000
6808,-140.625000
6809,-140.625000
6810,-140.625000
6811,-136.718750
6812,-140.625000
6813,-136.718750
6814,-140.625000
6815,-136.718750
6816,-136.718750
6817,-136.718750
6818,-136.718750
6819,-136.718750
6820,-136.718750
6821,-136.718750
6822,-136.718750
6823,-136.718750
6824,-132.812500
6825,-132.812500
6826,-132.812500
6827,-132.812500
6828,-132.812500
6829,-128.906250
6830,-132.812500
6831,-132.812500
6832,-132.812500
6833,-132.812500
6834,-128.906250
6835,-128.906250
6836,-128.906250
6837,-128.906250
6838,-128.906250
6839,-128.906250
6840,-128.906250
6841,-125.000000
6842,-125.000000
6843,-125.000000
6844,-125.000000
6845,-125.000000
6846,-125.000000
6847,-125.000000
6848,-125.000000
6849,-121.093750
6850,-121.093750
6851,-121.093750
6852,-121.093750
6853,-121.093750
6854,-121.093750
6855,-121.093750
6856,-121.093750
6857,-117.187500
6858,-117.187500
6859,-117.187500
6860,-117.187500
6861,-117.187500
6862,-117.187500
6863,-113.281250
6864,-113.281250
6865,-113.281250
6866,-113.281250
6867,-113.281250
6868,-113.281250
6869,-109.375000
6870,-109.375000
6871,-109.375000
6872,-109.375000
6873,-109.375000
6874,-109.375000
6875,-109.375000
6876,-109.375000
6877,-105.468750
6878,-105.468750
6879,-105.468750
6880,-105.468750
6881,-101.562500
6882,-101.562500
6883,-105.468750
6884,-101.562500
6885,-101.562500
6886,-101.562500
6887,-101.562500
6888,-101.562500
6889,-97.656250
6890,-97.656250
6891,-97.656250
6892,-97.656250
6893,-93.750000
6894,-97.656250
6895,-93.750000
6896,-93.750000
6897,-93.750000
6898,-93.750000
6899,-89.843750
6900,-89.843750
6901,-89.843750
6902,-89.843750
6903,-89.843750
6904,-89.843750
6905,-85.937500
6906,-85.937500
6907,-85.937500
6908,-85.937500
6909,-82.031250
6910,-82.031250
6911,-82.031250
6912,-82.031250
6913,-82.031250
6914,-78.125000
6915,-78.125000
6916,-78.125000
6917,-78.125000
6918,-78.125000
6919,-74.218750
6920,-78.125000
6921,-74.218750
6922,-74.218750
6923,-74.218750
6924,-70.312500
6925,-70.312500
6926,-70.312500
6927,-70.312500
6928,-70.312500
6929,-70.312500
6930,-66.406250
6931,-66.406250
6932,-66.406250
6933,-66.406250
6934,-66.406250
6935,-62.500000
6936,-62.500000
6937,-62.500000
6938,-62.500000
6939,-58.593750
6940,-58.593750
6941,-58.593750
6942,-58.593750
6943,-58.593750
6944,-58.593750
6945,-54.687500
6946,-54.687500
6947,-54.687500
6948,-54.687500
6949,-50.781250
6950,-50.781250
6951,-50.781250
6952,-50.781250
6953,-50.781250
6954,-50.781250
6955,-46.875000
6956,-46.875000
6957,-46.875000
6958,-46.875000
6959,-42.968750
6960,-42.968750
6961,-42.968750
6962,-42.968750
6963,-42.968750
6964,-39.062500
6965,-39.062500
6966,-39.062500
6967,-39.062500
6968,-35.156250
6969,-35.156250
6970,-35.156250
6971,-35.156250
6972,-35.156250
6973,-31.250000
6974,-31.250000
6975,-31.250000
6976,-31.250000
6977,-27.343750
6978,-27.343750
6979,-27.343750
6980,-27.343750
6981,-27.343750
6982,-23.437500
6983,-23.437500
6984,-23.437500
6985,-23.437500
6986,-23.437500
6987,-19.531250
6988,-19.531250
6989,-19.531250
6990,-19.531250
6991,-15.625000
6992,-15.625000
6993,-15.625000
6994,-15.625000
6995,-11.718750
6996,-11.718750
6997,-11.718750
6998,-11.718750
6999,-11.718750
7000,-7.812500
7001,-7.812500
7002,-7.812500
7003,-7.812500
7004,-7.812500
7005,-3.906250
7006,-3.906250
7007,-3.906250
7008,-3.906250
7009,0.000000
7010,0.000000
7011,0.000000
7012,0.000000
7013,0.000000
7014,0.000000
7015,3.906250
7016,3.906250
7017,3.906250
7018,3.906250
7019,7.812500
7020,7.812500
7021,7.812500
7022,7.812500
7023,7.812500
7024,11.718750
7025,11.718750
7026,11.718750
7027,11.718750
7028,11.718750
7029,15.625000
7030,15.625000
7031,15.625000
7032,15.625000
7033,19.531250
7034,19.531250
7035,19.531250
7036,19.531250
7037,19.531250
7038,23.437500
7039,23.437500
7040,23.437500
7041,23.437500
7042,23.437500
7043,23.437500
7044,27.343750
7045,27.343750
7046,27.343750
7047,27.343750
7048,27.343750
7049,31.250000
7050,31.250000
7051,31.250000
7052,31.250000
7053,31.250000
7054,35.156250
7055,35.156250
7056,35.156250
7057,35.156250
7058,35.156250
7059,39.062500
7060,39.062500
7061,39.062500
7062,39.062500
7063,39.062500
7064,39.062500
7065,42.968750
7066,42.968750
7067,42.968750
7068,42.968750
7069,42.968750
7070,42.968750
7071,46.875000
7072,46.875000
7073,46.875000
7074,46.875000
7075,46.875000
7076,50.781250
7077,50.781250
7078,50.781250
7079,50.781250
7080,50.781250
7081,50.781250
7082,50.781250
7083,54.687500
7084,54.687500
7085,54.687500
7086,54.687500
7087,54.687500
7088,58.593750
7089,58.593750
7090,58.593750
7091,58.593750
7092,58.593750
7093,58.593750
7094,62.500000
7095,62.500000
7096,62.500000
7097,62.500000
7098,62.500000
7099,62.500000
7100,66.406250
7101,66.406250
7102,66.406250
7103,66.406250
7104,66.406250
7105,66.406250
7106,66.406250
7107,70.312500
7108,70.312500
7109,70.312500
7110,70.312500
7111,70.312500
7112,70.312500
7113,70.312500
7114,74.218750
7115,74.218750
7116,74.218750
7117,74.218750
7118,74.218750
7119,74.218750
7120,78.125000
7121,78.125000
7122,78.125000
7123,78.125000
7124,78.125000
7125,78.125000
7126,78.125000
7127,82.031250
7128,82.031250
7129,82.031250
7130,82.031250
7131,82.031250
7132,82.031250
7133,82.031250
7134,82.031250
7135,85.937500
7136,85.937500
7137,85.937500
7138,85.937500
7139,85.937500
7140,85.937500
7141,85.937500
7142,85.937500
7143,85.937500
7144,89.843750
7145,89.843750
7146,89.843750
7147,89.843750
7148,89.843750
7149,89.843750
7150,89.843750
7151,93.750000
7152,93.750000
7153,93.750000
7154,93.750000
7155,93.750000
7156,93.750000
7157,93.750000
7158,93.750000
7159,93.750000
7160,93.750000
7161,93.750000
7162,93.750000
7163,93.750000
7164,97.656250
7165,97.656250
7166,97.656250
7167,97.656250
7168,97.656250
7169,97.656250
7170,97.656250
7171,97.656250
7172,97.656250
7173,97.656250
7174,97.656250
7175,97.656250
7176,101.562500
7177,101.562500
7178,101.562500
7179,101.562500
7180,101.562500
7181,101.562500
7182,101.562500
7183,101.562500
7184,101.562500
7185,101.562500
7186,101.562500
7187,105.468750
7188,101.562500
7189,105.468750
7190,105.468750
7191,105.468750
7192,105.468750
7193,105.468750
7194,105.468750
7195,105.468750
7196,105.468750
7197,105.468750
7198,105.468750
7199,105.468750
7200,105.468750
7201,105.468750
7202,105.468750
7203,105.468750
7204,105.468750
7205,105.468750
7206,109.375000
7207,109.375000
7208,109.375000
7209,109.375000
7210,109.375000
7211,109.375000
7212,109.375000
7213,109.375000
7214,109.375000
7215,109.375000
7216,109.375000
7217,109.375000
7218,109.375000
7219,109.375000
7220,109.375000
7221,109.375000
7222,109.375000
7223,109.375000
7224,109.375000
7225,109.375000
7226,109.375000
7227,109.375000
7228,109.375000
7229,109.375000
7230,109.375000
7231,109.375000
7232,109.375000
7233,109.375000
7234,113.281250
7235,113.281250
7236,113.281250
7237,113.281250
7238,113.281250
7239,113.281250
7240,109.375000
7241,113.281250
7242,113.281250
7243,113.281250
7244,113.281250
7245,113.281250
7246,113.281250
7247,113.281250
7248,113.281250
7249,113.281250
7250,113.281250
7251,113.281250
7252,113.281250
7253,113.281250
7254,113.281250
7255,113.281250
7256,113.281250
7257,113.281250
7258,113.281250
7259,113.281250
7260,113.281250
7261,113.281250
7262,109.375000
7263,113.281250
7264,109.375000
7265,113.281250
7266,109.375000
7267,113.281250
7268,113.281250
7269,113.281250
7270,113.281250
7271,113.281250
7272,109.375000
7273,109.375000
7274,109.375000
7275,113.281250
7276,109.375000
7277,109.375000
7278,109.375000
7279,109.375000
7280,109.375000
7281,109.375000
7282,109.375000
7283,109.375000
7284,109.375000
7285,109.375000
7286,109.375000
7287,109.375000
7288,109.375000
7289,109.375000
7290,109.375000
7291,109.375000
7292,109.375000
7293,109.375000
7294,109.375000
7295,109.375000
7296,109.375000
7297,109.375000
7298,109.375000
7299,109.375000
7300,109.375000
7301,109.375000
7302,105.468750
7303,105.468750
7304,105.468750
7305,105.468750
7306,105.468750
7307,105.468750
7308,105.468750
7309,105.468750
7310,105.468750
7311,105.468750
7312,105.468750
7313,105.468750
7314,105.468750
7315,105.468750
7316,105.468750
7317,101.562500
7318,101.562500
7319,101.562500
7320,101.562500
7321,101.562500
7322,101.562500
7323,101.562500
7324,101.562500
7325,101.562500
7326,101.562500
7327,101.562500
7328,101.562500
7329,101.562500
7330,97.656250
7331,97.656250
7332,97.656250
7333,97.656250
7334,97.656250
7335,97.656250
7336,97.656250
7337,97.656250
7338,97.656250
7339,97.656250
7340,97.656250
7341,97.656250
7342,93.750000
7343,93.750000
7344,93.750000
7345,93.750000
7346,93.750000
7347,93.750000
7348,93.750000
7349,93.750000
7350,93.750000
7351,93.750000
7352,89.843750
7353,89.843750
7354,89.843750
7355,89.843750
7356,89.843750
7357,89.843750
7358,89.843750
7359,89.843750
7360,85.937500
7361,85.937500
7362,85.937500
7363,85.937500
7364,85.937500
7365,85.937500
7366,85.937500
7367,85.937500
7368,82.031250
7369,82.031250
7370,82.031250
7371,82.031250
7372,82.031250
7373,82.031250
7374,82.031250
7375,82.031250
7376,78.125000
7377,78.125000
7378,78.125000
7379,78.125000
7380,78.125000
7381,78.125000
7382,78.125000
7383,78.125000
7384,74.218750
7385,74.218750
7386,74.218750
7387,74.218750
7388,74.218750
7389,74.218750
7390,74.218750
7391,70.312500
7392,70.312500
7393,70.312500
7394,70.312500
7395,70.312500
7396,70.312500
7397,70.312500
7398,66.406250
7399,66.406250
7400,66.406250
7401,66.406250
7402,66.406250
7403,66.406250
7404,62.500000
7405,62.500000
7406,62.500000
7407,62.500000
7408,62.500000
7409,62.500000
7410,62.500000
7411,58.593750
7412,58.593750
7413,58.593750
7414,58.593750
7415,54.687500
7416,54.687500
7417,54.687500
7418,54.687500
7419,54.687500
7420,54.687500
7421,54.687500
7422,50.781250
7423,50.781250
7424,50.781250
7425,50.781250
7426,50.781250
7427,50.781250
7428,46.875000
7429,46.875000
7430,46.875000
7431,46.875000
7432,46.875000
7433,46.875000
7434,42.968750
7435,42.968750
7436,42.968750
7437,42.968750
7438,42.968750
7439,39.062500
7440,39.062500
7441,39.062500
7442,39.062500
7443,39.062500
7444,35.156250
7445,35.156250
7446,35.156250
7447,35.156250
7448,35.156250
7449,35.156250
7450,31.250000
7451,31.250000
7452,31.250000
7453,31.250000
7454,27.343750
7455,31.250000
7456,27.343750
7457,27.343750
7458,27.343750
7459,27.343750
7460,23.437500
7461,23.437500
7462,23.437500
7463,23.437500
7464,19.531250
7465,19.531250
7466,19.531250
7467,19.531250
7468,19.531250
7469,19.531250
7470,15.625000
7471,15.625000
7472,15.625000
7473,15.625000
7474,11.718750
7475,11.718750
7476,11.718750
7477,11.718750
7478,11.718750
7479,7.812500
7480,7.812500
7481,7.812500
7482,7.812500
7483,7.812500
7484,3.906250
7485,3.906250
7486,3.906250
7487,3.906250
7488,0.000000
7489,0.000000
7490,0.000000
7491,0.000000
7492,0.000000
7493,0.000000
7494,-3.906250
7495,-3.906250
7496,-3.906250
7497,-3.906250
7498,-7.812500
7499,-7.812500
7500,-7.812500
7501,-7.812500
7502,-7.812500
7503,-11.718750
7504,-11.718750
7505,-11.718750
7506,-11.718750
7507,-15.625000
7508,-15.625000
7509,-15.625000
7510,-15.625000
7511,-15.625000
7512,-19.531250
7513,-19.531250
7514,-19.531250
7515,-19.531250
7516,-19.531250
7517,-23.437500
7518,-23.437500
7519,-23.437500
7520,-23.437500
7521,-27.343750
7522,-27.343750
7523,-27.343750
7524,-27.343750
7525,-31.250000
7526,-31.250000
7527,-31.250000
7528,-31.250000
7529,-31.250000
7530,-31.250000
7531,-35.156250
7532,-35.156250
7533,-35.156250
7534,-35.156250
7535,-39.062500
7536,-39.062500
7537,-39.062500
7538,-39.062500
7539,-39.062500
7540,-42.968750
7541,-42.968750
7542,-42.968750
7543,-42.968750
7544,-46.875000
7545,-46.875000
7546,-46.875000
7547,-46.875000
7548,-46.875000
7549,-50.781250
7550,-50.781250
7551,-50.781250
7552,-50.781250
7553,-50.781250
7554,-54.687500
7555,-54.687500
7556,-54.687500
7557,-54.687500
7558,-54.687500
7559,-54.687500
7560,-58.593750
7561,-58.593750
7562,-58.593750
7563,-62.500000
7564,-62.500000
7565,-62.500000
7566,-62.500000
7567,-62.500000
7568,-66.406250
7569,-66.406250
7570,-66.406250
7571,-66.406250
7572,-70.312500
7573,-70.312500
7574,-70.312500
7575,-70.312500
7576,-70.312500
7577,-74.218750
7578,-74.218750
7579,-74.218750
7580,-74.218750
7581,-74.218750
7582,-78.125000
7583,-78.125000
7584,-78.125000
7585,-78.125000
7586,-82.031250
7587,-82.031250
7588,-82.031250
7589,-82.031250
7590,-82.031250
7591,-82.031250
7592,-85.937500
7593,-85.937500
7594,-85.937500
7595,-85.937500
7596,-85.937500
7597,-85.937500
7598,-89.843750
7599,-89.843750
7600,-89.843750
7601,-89.843750
7602,-89.843750
7603,-93.750000
7604,-93.750000
7605,-93.750000
7606,-93.750000
7607,-93.750000
7608,-93.750000
7609,-97.656250
7610,-97.656250
7611,-97.656250
7612,-97.656250
7613,-97.656250
7614,-101.562500
7615,-101.562500
7616,-101.562500
7617,-101.562500
7618,-101.562500
7619,-101.562500
7620,-105.468750
7621,-105.468750
7622,-105.468750
7623,-105.468750
7624,-105.468750
7625,-105.468750
7626,-109.375000
7627,-109.375000
7628,-109.375000
7629,-109.375000
7630,-109.375000
7631,-109.375000
7632,-113.281250
7633,-113.281250
7634,-113.281250
7635,-113.281250
7636,-113.281250
7637,-113.281250
7638,-117.187500
7639,-117.187500
7640,-117.187500
7641,-117.187500
7642,-117.187500
7643,-117.187500
7644,-117.187500
7645,-121.093750
7646,-121.093750
7647,-121.093750
7648,-121.093750
7649,-121.093750
7650,-121.093750
7651,-121.093750
7652,-125.000000
7653,-125.000000
7654,-125.000000
7655,-125.000000
7656,-125.000000
7657,-125.000000
7658,-125.000000
7659,-125.000000
7660,-128.906250
7661,-128.906250
7662,-128.906250
7663,-128.906250
7664,-128.906250
7665,-128.906250
7666,-128.906250
7667,-128.906250
7668,-132.812500
7669,-132.812500
7670,-132.812500
7671,-132.812500
7672,-132.812500
7673,-132.812500
7674,-132.812500
7675,-132.812500
7676,-132.812500
7677,-132.812500
7678,-132.812500
7679,-136.718750
7680,-136.718750
7681,-136.718750
7682,-136.718750
7683,-136.718750
7684,-136.718750
7685,-136.718750
7686,-136.718750
7687,-136.718750
7688,-136.718750
7689,-140.625000
7690,-140.625000
7691,-140.625000
7692,-140.625000
7693,-140.625000
7694,-140.625000
7695,-140.625000
7696,-140.625000
7697,-140.625000
7698,-140.625000
7699,-140.625000
7700,-144.531250
7701,-144.531250
7702,-144.531250
7703,-144.531250
7704,-144.531250
7705,-144.531250
7706,-144.531250
7707,-144.531250
7708,-144.531250
7709,-144.531250
7710,-144.531250
7711,-144.531250
7712,-144.531250
7713,-144.531250
7714,-144.531250
7715,-144.531250
7716,-144.531250
7717,-144.531250
7718,-144.531250
7719,-148.437500
7720,-148.437500
7721,-148.437500
7722,-148.437500
7723,-148.437500
7724,-148.437500
7725,-148.437500
7726,-148.437500
7727,-148.437500
7728,-148.437500
7729,-148.437500
7730,-148.437500
7731,-148.437500
7732,-148.437500
7733,-148.437500
7734,-148.437500
7735,-148.437500
7736,-148.437500
7737,-148.437500
7738,-148.437500
7739,-148.437500
7740,-148.437500
7741,-148.437500
7742,-148.437500
7743,-148.437500
7744,-148.437500
7745,-148.437500
7746,-148.437500
7747,-148.437500
7748,-148.437500
7749,-148.437500
7750,-148.437500
7751,-148.437500
7752,-148.437500
7753,-148.437500
7754,-148.437500
7755,-148.437500
7756,-148.437500
7757,-148.437500
7758,-148.437500
7759,-148.437500
7760,-148.437500
7761,-148.437500
7762,-148.437500
7763,-148.437500
7764,-148.437500
7765,-148.437500
7766,-148.437500
7767,-148.437500
7768,-148.437500
7769,-148.437500
7770,-148.437500
7771,-148.437500
7772,-144.531250
7773,-148.437500
7774,-144.531250
7775,-144.531250
7776,-144.531250
7777,-144.531250
7778,-144.531250
7779,-144.531250
7780,-144.531250
7781,-144.531250
7782,-144.531250
7783,-144.531250
7784,-144.531250
7785,-144.531250
7786,-144.531250
7787,-144.531250
7788,-140.625000
7789,-140.625000
7790,-140.625000
7791,-140.625000
7792,-144.531250
7793,-140.625000
7794,-140.625000
7795,-140.625000
7796,-140.625000
7797,-140.625000
7798,-140.625000
7799,-140.625000
7800,-140.625000
7801,-140.625000
7802,-140.625000
7803,-136.718750
7804,-136.718750
7805,-136.718750
7806,-136.718750
7807,-136.718750
7808,-136.718750
7809,-136.718750
7810,-136.718750
7811,-136.718750
7812,-136.718750
7813,-136.718750
7814,-132.812500
7815,-132.812500
7816,-132.812500
7817,-132.812500
7818,-132.812500
7819,-132.812500
7820,-132.812500
7821,-132.812500
7822,-132.812500
7823,-132.812500
7824,-128.906250
7825,-128.906250
7826,-128.906250
7827,-128.906250
7828,-128.906250
7829,-128.906250
7830,-125.000000
7831,-128.906250
7832,-125.000000
7833,-125.000000
7834,-125.000000
7835,-125.000000
7836,-125.000000
7837,-125.000000
7838,-125.000000
7839,-121.093750
7840,-121.093750
7841,-121.093750
7842,-121.093750
7843,-121.093750
7844,-121.093750
7845,-121.093750
7846,-121.093750
7847,-117.187500
7848,-117.187500
7849,-117.187500
7850,-117.187500
7851,-117.187500
7852,-117.187500
7853,-113.281250
7854,-113.281250
7855,-113.281250
7856,-113.281250
7857,-113.281250
7858,-113.281250
7859,-109.375000
7860,-109.375000
7861,-109.375000
7862,-109.375000
7863,-109.375000
7864,-109.375000
7865,-105.468750
7866,-109.375000
7867,-105.468750
7868,-105.468750
7869,-105.468750
7870,-105.468750
7871,-105.468750
7872,-101.562500
7873,-101.562500
7874,-101.562500
7875,-101.562500
7876,-101.562500
7877,-97.656250
7878,-97.656250
7879,-97.656250
7880,-97.656250
7881,-97.656250
7882,-97.656250
7883,-93.750000
7884,-93.750000
7885,-93.750000
7886,-93.750000
7887,-93.750000
7888,-93.750000
7889,-89.843750
7890,-89.843750
7891,-89.843750
7892,-89.843750
7893,-89.843750
7894,-85.937500
7895,-85.937500
7896,-85.937500
7897,-85.937500
7898,-85.937500
7899,-82.031250
7900,-82.031250
7901,-82.031250
7902,-82.031250
7903,-82.031250
7904,-82.031250
7905,-78.125000
7906,-78.125000
7907,-78.125000
7908,-78.125000
7909,-74.218750
7910,-74.218750
7911,-74.218750
7912,-74.218750
7913,-74.218750
7914,-74.218750
7915,-70.312500
7916,-70.312500
7917,-70.312500
7918,-70.312500
7919,-66.406250
7920,-66.406250
7921,-66.406250
7922,-66.406250
7923,-66.406250
7924,-62.500000
7925,-62.500000
7926,-62.500000
7927,-62.500000
7928,-58.593750
7929,-58.593750
7930,-58.593750
7931,-58.593750
7932,-58.593750
7933,-58.593750
7934,-54.687500
7935,-54.687500
7936,-54.687500
7937,-54.687500
7938,-50.781250
7939,-50.781250
7940,-50.781250
7941,-50.781250
7942,-50.781250
7943,-46.875000
7944,-46.875000
7945,-46.875000
7946,-46.875000
7947,-42.968750
7948,-42.968750
7949,-42.968750
7950,-42.968750
7951,-42.968750
7952,-42.968750
7953,-39.062500
7954,-39.062500
7955,-39.062500
7956,-35.156250
7957,-39.062500
7958,-35.156250
7959,-35.156250
7960,-35.156250
7961,-35.156250
7962,-31.250000
7963,-31.250000
7964,-31.250000
7965,-31.250000
7966,-27.343750
7967,-27.343750
7968,-27.343750
7969,-27.343750
7970,-27.343750
7971,-23.437500
7972,-23.437500
7973,-23.437500
7974,-23.437500
7975,-23.437500
7976,-19.531250
7977,-19.531250
7978,-19.531250
7979,-19.531250
7980,-19.531250
7981,-15.625000
7982,-15.625000
7983,-15.625000
7984,-15.625000
7985,-11.718750
7986,-11.718750
7987,-11.718750
7988,-11.718750
7989,-7.812500
7990,-7.812500
7991,-7.812500
7992,-7.812500
7993,-7.812500
7994,-7.812500
7995,-3.906250
7996,-3.906250
7997,-3.906250
7998,-3.906250
7999,0.000000
8000,0.000000
8001,0.000000
8002,0.000000
8003,0.000000
8004,3.906250
8005,3.906250
8006,3.906250
8007,3.906250
8008,3.906250
8009,3.906250
8010,7.812500
8011,7.812500
8012,7.812500
8013,11.718750
8014,11.718750
8015,11.718750
8016,11.718750
8017,11.718750
8018,11.718750
8019,15.625000
8020,15.625000
8021,15.625000
8022,15.625000
8023,19.531250
8024,19.531250
8025,19.531250
8026,19.531250
8027,19.531250
8028,19.531250
8029,23.437500
8030,23.437500
8031,23.437500
8032,23.437500
8033,27.343750
8034,27.343750
8035,27.343750
8036,27.343750
8037,27.343750
8038,31.250000
8039,31.250000
8040,31.250000
8041,31.250000
8042,31.250000
8043,35.156250
8044,35.156250
8045,35.156250
8046,35.156250
8047,35.156250
8048,35.156250
8049,39.062500
8050,39.062500
8051,39.062500
8052,39.062500
8053,39.062500
8054,42.968750
8055,42.968750
8056,42.968750
8057,42.968750
8058,42.968750
8059,42.968750
8060,46.875000
8061,46.875000
8062,46.875000
8063,46.875000
8064,46.875000
8065,50.781250
8066,50.781250
8067,50.781250
8068,50.781250
8069,50.781250
8070,50.781250
8071,54.687500
8072,54.687500
8073,54.687500
8074,54.687500
8075,58.593750
8076,58.593750
8077,58.593750
8078,58.593750
8079,58.593750
8080,58.593750
8081,58.593750
8082,58.593750
8083,62.500000
8084,62.500000
8085,62.500000
8086,62.500000
8087,62.500000
8088,62.500000
8089,62.500000
8090,66.406250
8091,66.406250
8092,66.406250
8093,66.406250
8094,66.406250
8095,70.312500
8096,70.312500
8097,70.312500
8098,70.312500
8099,70.312500
8100,70.312500
8101,70.312500
8102,70.312500
8103,74.218750
8104,74.218750
8105,74.218750
8106,74.218750
8107,74.218750
8108,74.218750
8109,74.218750
8110,78.125000
8111,78.125000
8112,78.125000
8113,78.125000
8114,78.125000
8115,78.125000
8116,78.125000
8117,78.125000
8118,82.031250
8119,82.031250
8120,82.031250
8121,82.031250
8122,82.031250
8123,82.031250
8124,82.031250
8125,82.031250
8126,85.937500
8127,85.937500
8128,85.937500
8129,85.937500
8130,85.937500
8131,85.937500
8132,85.937500
8133,85.937500
8134,85.937500
8135,89.843750
8136,89.843750
8137,89.843750
8138,89.843750
8139,89.843750
8140,89.843750
8141,89.843750
8142,89.843750
8143,89.843750
8144,93.750000
8145,93.750000
8146,93.750000
8147,93.750000
8148,93.750000
8149,93.750000
8150,93.750000
8151,93.750000
8152,93.750000
8153,93.750000
8154,97.656250
8155,97.656250
8156,97.656250
8157,97.656250
8158,97.656250
8159,97.656250
8160,97.656250
8161,97.656250
8162,97.656250
8163,97.656250
8164,97.656250
8165,101.562500
8166,101.562500
8167,101.562500
8168,101.562500
8169,101.562500
8170,101.562500
8171,101.562500
8172,101.562500
8173,101.562500
8174,101.562500
8175,101.562500
8176,105.468750
8177,101.562500
8178,105.468750
8179,105.468750
8180,101.562500
8181,105.468750
8182,105.468750
8183,105.468750
8184,105.468750
8185,105.468750
8186,105.468750
8187,105.468750
8188,105.468750
8189,105.468750
8190,105.468750
8191,109.375000
8192,105.468750
8193,109.375000
8194,109.375000
8195,109.375000
8196,109.375000
8197,109.375000
8198,109.375000
8199,109.375000
8200,109.375000
8201,109.375000
8202,109.375000
8203,109.375000
8204,109.375000
8205,109.375000
8206,109.375000
8207,109.375000
8208,109.375000
8209,109.375000
8210,109.375000
8211,109.375000
8212,109.375000
8213,109.375000
8214,109.375000
8215,109.375000
8216,109.375000
8217,113.281250
8218,109.375000
8219,109.375000
8220,109.375000
8221,113.281250
8222,109.375000
8223,113.281250
8224,113.281250
8225,113.281250
8226,109.375000
8227,113.281250
8228,113.281250
8229,113.281250
8230,113.281250
8231,113.281250
8232,109.375000
8233,113.281250
8234,113.281250
8235,109.375000
8236,109.375000
8237,113.281250
8238,113.281250
8239,113.281250
8240,113.281250
8241,113.281250
8242,113.281250
8243,113.281250
8244,113.281250
8245,113.281250
8246,113.281250
8247,113.281250
8248,113.281250
8249,113.281250
8250,113.281250
8251,113.281250
8252,113.281250
8253,113.281250
8254,113.281250
8255,113.281250
8256,109.375000
8257,113.281250
8258,109.375000
8259,109.375000
8260,109.375000
8261,109.375000
8262,109.375000
8263,113.281250
8264,109.375000
8265,109.375000
8266,109.375000
8267,109.375000
8268,109.375000
8269,109.375000
8270,109.375000
8271,109.375000
8272,109.375000
8273,109.375000
8274,109.375000
8275,109.375000
8276,109.375000
8277,109.375000
8278,109.375000
8279,109.375000
8280,109.375000
8281,109.375000
8282,109.375000
8283,109.375000
8284,109.375000
8285,109.375000
8286,109.375000
8287,109.375000
8288,105.468750
8289,105.468750
8290,105.468750
8291,105.468750
8292,105.468750
8293,105.468750
8294,105.468750
8295,105.468750
8296,105.468750
8297,105.468750
8298,105.468750
8299,105.468750
8300,105.468750
8301,105.468750
8302,105.468750
8303,105.468750
8304,105.468750
8305,105.468750
8306,105.468750
8307,105.468750
8308,101.562500
8309,101.562500
8310,101.562500
8311,101.562500
8312,101.562500
8313,101.562500
8314,101.562500
8315,101.562500
8316,101.562500
8317,101.562500
8318,101.562500
8319,101.562500
8320,97.656250
8321,97.656250
8322,97.656250
8323,97.656250
8324,97.656250
8325,97.656250
8326,97.656250
8327,101.562500
8328,97.656250
8329,97.656250
8330,93.750000
8331,97.656250
8332,93.750000
8333,93.750000
8334,93.750000
8335,93.750000
8336,93.750000
8337,93.750000
8338,93.750000
8339,89.843750
8340,89.843750
8341,89.843750
8342,93.750000
8343,89.843750
8344,89.843750
8345,89.843750
8346,89.843750
8347,89.843750
8348,89.843750
8349,89.843750
8350,85.937500
8351,85.937500
8352,85.937500
8353,85.937500
8354,85.937500
8355,85.937500
8356,85.937500
8357,85.937500
8358,82.031250
8359,82.031250
8360,82.031250
8361,82.031250
8362,82.031250
8363,82.031250
8364,82.031250
8365,82.031250
8366,78.125000
8367,78.125000
8368,78.125000
8369,78.125000
8370,78.125000
8371,82.031250
8372,78.125000
8373,78.125000
8374,74.218750
8375,74.218750
8376,78.125000
8377,74.218750
8378,74.218750
8379,74.218750
8380,74.218750
8381,74.218750
8382,70.312500
8383,70.312500
8384,70.312500
8385,70.312500
8386,70.312500
8387,66.406250
8388,66.406250
8389,66.406250
8390,66.406250
8391,70.312500
8392,66.406250
8393,66.406250
8394,62.500000
8395,62.500000
8396,62.500000
8397,62.500000
8398,62.500000
8399,62.500000
8400,58.593750
8401,58.593750
8402,58.593750
8403,58.593750
8404,58.593750
8405,58.593750
8406,54.687500
8407,54.687500
8408,54.687500
8409,54.687500
8410,54.687500
8411,54.687500
8412,50.781250
8413,50.781250
8414,50.781250
8415,50.781250
8416,50.781250
8417,46.875000
8418,46.875000
8419,46.875000
8420,46.875000
8421,46.875000
8422,46.875000
8423,46.875000
8424,42.968750
8425,42.968750
8426,42.968750
8427,42.968750
8428,42.968750
8429,39.062500
8430,39.062500
8431,39.062500
8432,39.062500
8433,39.062500
8434,39.062500
8435,35.156250
8436,35.156250
8437,35.156250
8438,35.156250
8439,31.250000
8440,31.250000
8441,31.250000
8442,31.250000
8443,31.250000
8444,27.343750
8445,27.343750
8446,27.343750
8447,27.343750
8448,27.343750
8449,27.343750
8450,23.437500
8451,23.437500
8452,23.437500
8453,23.437500
8454,19.531250
8455,19.531250
8456,19.531250
8457,19.531250
8458,19.531250
8459,19.531250
8460,15.625000
8461,15.625000
8462,15.625000
8463,15.625000
8464,11.718750
8465,11.718750
8466,11.718750
8467,11.718750
8468,7.812500
8469,7.812500
8470,7.812500
8471,7.812500
8472,7.812500
8473,7.812500
8474,3.906250
8475,3.906250
8476,3.906250
8477,3.906250
8478,0.000000
8479,0.000000
8480,0.000000
8481,0.000000
8482,0.000000
8483,0.000000
8484,-3.906250
8485,-3.906250
8486,-3.906250
8487,-7.812500
8488,-7.812500
8489,-7.812500
8490,-7.812500
8491,-7.812500
8492,-11.718750
8493,-11.718750
8494,-11.718750
8495,-11.718750
8496,-15.625000
8497,-15.625000
8498,-15.625000
8499,-15.625000
8500,-15.625000
8501,-19.531250
8502,-19.531250
8503,-19.531250
8504,-19.531250
8505,-19.531250
8506,-23.437500
8507,-23.437500
8508,-23.437500
8509,-23.437500
8510,-23.437500
8511,-27.343750
8512,-27.343750
8513,-27.343750
8514,-27.343750
8515,-31.250000
8516,-31.250000
8517,-31.250000
8518,-31.250000
8519,-35.156250
8520,-35.156250
8521,-35.156250
8522,-35.156250
8523,-35.156250
8524,-39.062500
8525,-39.062500
8526,-39.062500
8527,-39.062500
8528,-39.062500
8529,-42.968750
8530,-42.968750
8531,-42.968750
8532,-42.968750
8533,-46.875000
8534,-46.875000
8535,-46.875000
8536,-46.875000
8537,-46.875000
8538,-50.781250
8539,-50.781250
8540,-50.781250
8541,-50.781250
8542,-54.687500
8543,-54.687500
8544,-54.687500
8545,-54.687500
8546,-58.593750
8547,-58.593750
8548,-58.593750
8549,-58.593750
8550,-58.593750
8551,-58.593750
8552,-62.500000
8553,-62.500000
8554,-62.500000
8555,-62.500000
8556,-62.500000
8557,-66.406250
8558,-66.406250
8559,-66.406250
8560,-66.406250
8561,-66.406250
8562,-66.406250
8563,-70.312500
8564,-70.312500
8565,-70.312500
8566,-70.312500
8567,-74.218750
8568,-74.218750
8569,-74.218750
8570,-74.218750
8571,-74.218750
8572,-78.125000
8573,-78.125000
8574,-78.125000
8575,-78.125000
8576,-78.125000
8577,-78.125000
8578,-82.031250
8579,-82.031250
8580,-82.031250
8581,-82.031250
8582,-85.937500
8583,-85.937500
8584,-85.937500
8585,-85.937500
8586,-85.937500
8587,-89.843750
8588,-89.843750
8589,-89.843750
8590,-89.843750
8591,-89.843750
8592,-89.843750
8593,-93.750000
8594,-93.750000
8595,-93.750000
8596,-93.750000
8597,-93.750000
8598,-97.656250
8599,-97.656250
8600,-97.656250
8601,-97.656250
8602,-97.656250
8603,-97.656250
8604,-101.562500
8605,-101.562500
8606,-101.562500
8607,-101.562500
8608,-101.562500
8609,-101.562500
8610,-105.468750
8611,-105.468750
8612,-105.468750
8613,-105.468750
8614,-105.468750
8615,-105.468750
8616,-109.375000
8617,-109.375000
8618,-109.375000
8619,-109.375000
8620,-109.375000
8621,-109.375000
8622,-113.281250
8623,-113.281250
8624,-113.281250
8625,-113.281250
8626,-113.281250
8627,-113.281250
8628,-117.187500
8629,-117.187500
8630,-117.187500
8631,-117.187500
8632,-117.187500
8633,-117.187500
8634,-121.093750
8635,-117.187500
8636,-121.093750
8637,-121.093750
8638,-121.093750
8639,-121.093750
8640,-121.093750
8641,-121.093750
8642,-125.000000
8643,-125.000000
8644,-125.000000
8645,-125.000000
8646,-125.000000
8647,-125.000000
8648,-128.906250
8649,-125.000000
8650,-128.906250
8651,-128.906250
8652,-128.906250
8653,-128.906250
8654,-128.906250
8655,-128.906250
8656,-128.906250
8657,-132.812500
8658,-132.812500
8659,-132.812500
8660,-132.812500
8661,-132.812500
8662,-132.812500
8663,-132.812500
8664,-132.812500
8665,-132.812500
8666,-136.718750
8667,-132.812500
8668,-136.718750
8669,-136.718750
8670,-136.718750
8671,-136.718750
8672,-136.718750
8673,-136.718750
8674,-136.718750
8675,-136.718750
8676,-140.625000
8677,-136.718750
8678,-140.625000
8679,-140.625000
8680,-140.625000
8681,-140.625000
8682,-140.625000
8683,-140.625000
8684,-140.625000
8685,-140.625000
8686,-140.625000
8687,-140.625000
8688,-144.531250
8689,-140.625000
8690,-140.625000
8691,-140.625000
8692,-144.531250
8693,-144.531250
8694,-144.531250
8695,-144.531250
8696,-144.531250
8697,-144.531250
8698,-144.531250
8699,-144.531250
8700,-144.531250
8701,-144.531250
8702,-144.531250
8703,-144.531250
8704,-144.531250
8705,-144.531250
8706,-144.531250
8707,-148.437500
8708,-144.531250
8709,-144.531250
8710,-144.531250
8711,-144.531250
8712,-144.531250
8713,-144.531250
8714,-148.437500
8715,-148.437500
8716,-148.437500
8717,-148.437500
8718,-148.437500
8719,-148.437500
8720,-148.437500
8721,-148.437500
8722,-148.437500
8723,-148.437500
8724,-148.437500
8725,-148.437500
8726,-148.437500
8727,-148.437500
8728,-148.437500
8729,-148.437500
8730,-148.437500
8731,-148.437500
8732,-148.437500
8733,-148.437500
8734,-148.437500
8735,-148.437500
8736,-148.437500
8737,-148.437500
8738,-148.437500
8739,-148.437500
8740,-148.437500
8741,-148.437500
8742,-148.437500
8743,-148.437500
8744,-148.437500
8745,-148.437500
8746,-148.437500
8747,-148.437500
8748,-148.437500
8749,-148.437500
8750,-148.437500
8751,-148.437500
8752,-148.437500
8753,-148.437500
8754,-148.437500
8755,-148.437500
8756,-148.437500
8757,-148.437500
8758,-148.437500
8759,-148.437500
8760,-148.437500
8761,-148.437500
8762,-148.437500
8763,-144.531250
8764,-144.531250
8765,-144.531250
8766,-144.531250
8767,-144.531250
8768,-144.531250
8769,-144.531250
8770,-144.531250
8771,-144.531250
8772,-144.531250
8773,-144.531250
8774,-144.531250
8775,-144.531250
8776,-144.531250
8777,-144.531250
8778,-144.531250
8779,-144.531250
8780,-144.531250
8781,-144.531250
8782,-140.625000
8783,-140.625000
8784,-140.625000
8785,-140.625000
8786,-140.625000
8787,-140.625000
8788,-140.625000
8789,-140.625000
8790,-140.625000
8791,-140.625000
8792,-140.625000
8793,-140.625000
8794,-136.718750
8795,-136.718750
8796,-136.718750
8797,-136.718750
8798,-136.718750
8799,-136.718750
8800,-136.718750
8801,-136.718750
8802,-132.812500
8803,-136.718750
8804,-136.718750
8805,-132.812500
8806,-132.812500
8807,-132.812500
8808,-132.812500
8809,-132.812500
8810,-132.812500
8811,-132.812500
8812,-132.812500
8813,-132.812500
8814,-128.906250
8815,-128.906250
8816,-128.906250
8817,-128.906250
8818,-128.906250
8819,-128.906250
8820,-128.906250
8821,-128.906250
8822,-125.000000
8823,-125.000000
8824,-125.000000
8825,-125.000000
8826,-125.000000
8827,-125.000000
8828,-125.000000
8829,-121.093750
8830,-121.093750
8831,-121.093750
8832,-121.093750
8833,-121.093750
8834,-121.093750
8835,-121.093750
8836,-117.187500
8837,-117.187500
8838,-117.187500
8839,-117.187500
8840,-117.187500
8841,-117.187500
8842,-117.187500
8843,-113.281250
8844,-113.281250
8845,-113.281250
8846,-113.281250
8847,-113.281250
8848,-113.281250
8849,-109.375000
8850,-109.375000
8851,-109.375000
8852,-109.375000
8853,-109.375000
8854,-109.375000
8855,-109.375000
8856,-105.468750
8857,-105.468750
8858,-105.468750
8859,-105.468750
8860,-105.468750
8861,-105.468750
8862,-101.562500
8863,-101.562500
8864,-101.562500
8865,-101.562500
8866,-101.562500
8867,-97.656250
8868,-97.656250
8869,-97.656250
8870,-97.656250
8871,-97.656250
8872,-97.656250
8873,-93.750000
8874,-93.750000
8875,-93.750000
8876,-93.750000
8877,-93.750000
8878,-93.750000
8879,-89.843750
8880,-89.843750
8881,-89.843750
8882,-89.843750
8883,-89.843750
8884,-89.843750
8885,-85.937500
8886,-85.937500
8887,-85.937500
8888,-85.937500
8889,-82.031250
8890,-82.031250
8891,-82.031250
8892,-82.031250
8893,-82.031250
8894,-82.031250
8895,-78.125000
8896,-78.125000
8897,-78.125000
8898,-78.125000
8899,-74.218750
8900,-74.218750
8901,-74.218750
8902,-74.218750
8903,-74.218750
8904,-74.218750
8905,-70.312500
8906,-70.312500
8907,-70.312500
8908,-70.312500
8909,-66.406250
8910,-66.406250
8911,-66.406250
8912,-66.406250
8913,-66.406250
8914,-66.406250
8915,-62.500000
8916,-62.500000
8917,-62.500000
8918,-62.500000
8919,-58.593750
8920,-58.593750
8921,-58.593750
8922,-58.593750
8923,-58.593750
8924,-54.687500
8925,-54.687500
8926,-54.687500
8927,-54.687500
8928,-50.781250
8929,-50.781250
8930,-50.781250
8931,-50.781250
8932,-50.781250
8933,-50.781250
8934,-46.875000
8935,-46.875000
8936,-46.875000
8937,-46.875000
8938,-42.968750
8939,-42.968750
8940,-42.968750
8941,-42.968750
8942,-42.968750
8943,-39.062500
8944,-39.062500
8945,-39.062500
8946,-39.062500
8947,-35.156250
8948,-35.156250
8949,-35.156250
8950,-35.156250
8951,-35.156250
8952,-31.250000
8953,-31.250000
8954,-31.250000
8955,-31.250000
8956,-31.250000
8957,-27.343750
8958,-27.343750
8959,-27.343750
8960,-27.343750
8961,-23.437500
8962,-23.437500
8963,-23.437500
8964,-23.437500
8965,-23.437500
8966,-19.531250
8967,-19.531250
8968,-19.531250
8969,-19.531250
8970,-15.625000
8971,-15.625000
8972,-15.625000
8973,-15.625000
8974,-15.625000
8975,-11.718750
8976,-11.718750
8977,-11.718750
8978,-11.718750
8979,-7.812500
8980,-7.812500
8981,-7.812500
8982,-7.812500
8983,-7.812500
8984,-3.906250
8985,-3.906250
8986,-3.906250
8987,-3.906250
8988,-3.906250
8989,0.000000
8990,0.000000
8991,0.000000
8992,0.000000
8993,0.000000
8994,0.000000
8995,3.906250
8996,3.906250
8997,3.906250
8998,3.906250
8999,7.812500
9000,7.812500
9001,7.812500
9002,7.812500
9003,11.718750
9004,11.718750
9005,11.718750
9006,11.718750
9007,11.718750
9008,15.625000
9009,15.625000
9010,15.625000
9011,15.625000
9012,19.531250
9013,15.625000
9014,19.531250
9015,19.531250
9016,19.531250
9017,19.531250
9018,23.437500
9019,23.437500
9020,23.437500
9021,23.437500
9022,23.437500
9023,27.343750
9024,27.343750
9025,27.343750
9026,27.343750
9027,27.343750
9028,31.250000
9029,31.250000
9030,31.250000
9031,31.250000
9032,31.250000
9033,35.156250
9034,35.156250
9035,35.156250
9036,35.156250
9037,35.156250
9038,35.156250
9039,39.062500
9040,39.062500
9041,39.062500
9042,39.062500
9043,39.062500
9044,42.968750
9045,42.968750
9046,42.968750
9047,42.968750
9048,42.968750
9049,42.968750
9050,42.968750
9051,46.875000
9052,46.875000
9053,46.875000
9054,46.875000
9055,46.875000
9056,50.781250
9057,50.781250
9058,50.781250
9059,50.781250
9060,54.687500
9061,54.687500
9062,54.687500
9063,54.687500
9064,54.687500
9065,54.687500
9066,54.687500
9067,58.593750
9068,58.593750
9069,58.593750
9070,58.593750
9071,58.593750
9072,58.593750
9073,62.500000
9074,62.500000
9075,62.500000
9076,62.500000
9077,62.500000
9078,62.500000
9079,66.406250
9080,66.406250
9081,66.406250
9082,66.406250
9083,66.406250
9084,66.406250
9085,66.406250
9086,70.312500
9087,70.312500
9088,70.312500
9089,70.312500
9090,70.312500
9091,70.312500
9092,70.312500
9093,74.218750
9094,74.218750
9095,74.218750
9096,74.218750
9097,74.218750
9098,74.218750
9099,78.125000
9100,78.125000
9101,78.125000
9102,78.125000
9103,78.125000
9104,78.125000
9105,78.125000
9106,82.031250
9107,82.031250
9108,82.031250
9109,82.031250
9110,82.031250
9111,82.031250
9112,82.031250
9113,82.031250
9114,82.031250
9115,85.937500
9116,85.937500
9117,85.937500
9118,85.937500
9119,85.937500
9120,85.937500
9121,85.937500
9122,85.937500
9123,85.937500
9124,89.843750
9125,89.843750
9126,89.843750
9127,89.843750
9128,89.843750
9129,93.750000
9130,89.843750
9131,89.843750
9132,89.843750
9133,93.750000
9134,89.843750
9135,93.750000
9136,93.750000
9137,93.750000
9138,93.750000
9139,93.750000
9140,93.750000
9141,93.750000
9142,93.750000
9143,97.656250
9144,97.656250
9145,97.656250
9146,97.656250
9147,97.656250
9148,97.656250
9149,97.656250
9150,97.656250
9151,97.656250
9152,97.656250
9153,97.656250
9154,101.562500
9155,101.562500
9156,101.562500
9157,101.562500
9158,101.562500
9159,101.562500
9160,101.562500
9161,101.562500
9162,101.562500
9163,101.562500
9164,101.562500
9165,101.562500
9166,101.562500
9167,105.468750
9168,105.468750
9169,105.468750
9170,105.468750
9171,105.468750
9172,105.468750
9173,105.468750
9174,105.468750
9175,105.468750
9176,105.468750
9177,105.468750
9178,105.468750
9179,105.468750
9180,105.468750
9181,105.468750
9182,105.468750
9183,105.468750
9184,105.468750
9185,109.375000
9186,109.375000
9187,109.375000
9188,109.375000
9189,109.375000
9190,109.375000
9191,109.375000
9192,109.375000
9193,109.375000
9194,109.375000
9195,109.375000
9196,109.375000
9197,109.375000
9198,109.375000
9199,109.375000
9200,109.375000
9201,109.375000
9202,109.375000
9203,109.375000
9204,109.375000
9205,109.375000
9206,109.375000
9207,113.281250
9208,109.375000
9209,113.281250
9210,109.375000
9211,109.375000
9212,109.375000
9213,113.281250
9214,113.281250
9215,113.281250
9216,113.281250
9217,113.281250
9218,113.281250
9219,113.281250
9220,113.281250
9221,113.281250
9222,113.281250
9223,113.281250
9224,113.281250
9225,113.281250
9226,113.281250
9227,113.281250
9228,113.281250
9229,113.281250
9230,113.281250
9231,113.281250
9232,113.281250
9233,113.281250
9234,113.281250
9235,113.281250
9236,113.281250
9237,113.281250
9238,113.281250
9239,113.281250
9240,113.281250
9241,113.281250
9242,113.281250
9243,113.281250
9244,113.281250
9245,113.281250
9246,113.281250
9247,113.281250
9248,113.281250
9249,113.281250
9250,109.375000
9251,113.281250
9252,109.375000
9253,113.281250
9254,109.375000
9255,109.375000
9256,109.375000
9257,113.281250
9258,109.375000
9259,109.375000
9260,109.375000
9261,109.375000
9262,109.375000
9263,109.375000
9264,109.375000
9265,109.375000
9266,109.375000
9267,109.375000
9268,109.375000
9269,109.375000
9270,109.375000
9271,109.375000
9272,109.375000
9273,109.375000
9274,109.375000
9275,109.375000
9276,109.375000
9277,109.375000
9278,109.375000
9279,109.375000
9280,105.468750
9281,105.468750
9282,105.468750
9283,105.468750
9284,105.468750
9285,105.468750
9286,105.468750
9287,105.468750
9288,105.468750
9289,105.468750
9290,105.468750
9291,105.468750
9292,105.468750
9293,105.468750
9294,101.562500
9295,105.468750
9296,105.468750
9297,101.562500
9298,101.562500
9299,101.562500
9300,101.562500
9301,101.562500
9302,101.562500
9303,101.562500
9304,101.562500
9305,101.562500
9306,101.562500
9307,101.562500
9308,101.562500
9309,101.562500
9310,97.656250
9311,97.656250
9312,97.656250
9313,97.656250
9314,97.656250
9315,97.656250
9316,97.656250
9317,97.656250
9318,97.656250
9319,97.656250
9320,93.750000
9321,93.750000
9322,93.750000
9323,93.750000
9324,93.750000
9325,93.750000
9326,93.750000
9327,93.750000
9328,93.750000
9329,89.843750
9330,89.843750
9331,89.843750
9332,89.843750
9333,89.843750
9334,89.843750
9335,89.843750
9336,89.843750
9337,89.843750
9338,89.843750
9339,89.843750
9340,85.937500
9341,85.937500
9342,85.937500
9343,85.937500
9344,85.937500
9345,85.937500
9346,85.937500
9347,85.937500
9348,82.031250
9349,82.031250
9350,82.031250
9351,82.031250
9352,82.031250
9353,82.031250
9354,82.031250
9355,82.031250
9356,82.031250
9357,78.125000
9358,78.125000
9359,78.125000
9360,78.125000
9361,78.125000
9362,78.125000
9363,78.125000
9364,78.125000
9365,74.218750
9366,74.218750
9367,74.218750
9368,74.218750
9369,74.218750
9370,70.312500
9371,70.312500
9372,70.312500
9373,70.312500
9374,70.312500
9375,70.312500
9376,70.312500
9377,70.312500
9378,66.406250
9379,66.406250
9380,66.406250
9381,66.406250
9382,66.406250
9383,62.500000
9384,62.500000
9385,62.500000
9386,62.500000
9387,62.500000
9388,62.500000
9389,62.500000
9390,58.593750
9391,58.593750
9392,58.593750
9393,58.593750
9394,58.593750
9395,58.593750
9396,54.687500
9397,58.593750
9398,54.687500
9399,54.687500
9400,54.687500
9401,54.687500
9402,50.781250
9403,50.781250
9404,50.781250
9405,50.781250
9406,50.781250
9407,50.781250
9408,46.875000
9409,46.875000
9410,46.875000
9411,46.875000
9412,46.875000
9413,42.968750
9414,42.968750
9415,42.968750
9416,42.968750
9417,42.968750
9418,39.062500
9419,39.062500
9420,39.062500
9421,39.062500
9422,39.062500
9423,35.156250
9424,35.156250
9425,35.156250
9426,35.156250
9427,35.156250
9428,31.250000
9429,31.250000
9430,31.250000
9431,31.250000
9432,31.250000
9433,31.250000
9434,27.343750
9435,27.343750
9436,27.343750
9437,27.343750
9438,23.437500
9439,23.437500
9440,23.437500
9441,23.437500
9442,23.437500
9443,23.437500
9444,19.531250
9445,19.531250
9446,19.531250
9447,19.531250
9448,19.531250
9449,15.625000
9450,15.625000
9451,15.625000
9452,15.625000
9453,15.625000
9454,11.718750
9455,11.718750
9456,11.718750
9457,11.718750
9458,7.812500
9459,7.812500
9460,7.812500
9461,7.812500
9462,3.906250
9463,3.906250
9464,3.906250
9465,3.906250
9466,3.906250
9467,3.906250
9468,3.906250
9469,0.000000
9470,0.000000
9471,0.000000
9472,-3.906250
9473,-3.906250
9474,-3.906250
9475,-3.906250
9476,-3.906250
9477,-3.906250
9478,-7.812500
9479,-7.812500
9480,-7.812500
9481,-7.812500
9482,-11.718750
9483,-11.718750
9484,-11.718750
9485,-11.718750
9486,-15.625000
9487,-15.625000
9488,-11.718750
9489,-15.625000
9490,-15.625000
9491,-19.531250
9492,-19.531250
9493,-19.531250
9494,-19.531250
9495,-19.531250
9496,-23.437500
9497,-23.437500
9498,-23.437500
9499,-23.437500
9500,-27.343750
9501,-27.343750
9502,-27.343750
9503,-27.343750
9504,-27.343750
9505,-31.250000
9506,-31.250000
9507,-31.250000
9508,-31.250000
9509,-31.250000
9510,-35.156250
9511,-35.156250
9512,-35.156250
9513,-35.156250
9514,-39.062500
9515,-39.062500
9516,-39.062500
9517,-39.062500
9518,-39.062500
9519,-42.968750
9520,-42.968750
9521,-42.968750
9522,-42.968750
9523,-42.968750
9524,-46.875000
9525,-46.875000
9526,-46.875000
9527,-46.875000
9528,-50.781250
9529,-50.781250
9530,-50.781250
9531,-50.781250
9532,-50.781250
9533,-54.687500
9534,-54.687500
9535,-54.687500
9536,-54.687500
9537,-54.687500
9538,-58.593750
9539,-58.593750
9540,-58.593750
9541,-58.593750
9542,-62.500000
9543,-62.500000
9544,-62.500000
9545,-62.500000
9546,-62.500000
9547,-66.406250
9548,-66.406250
9549,-66.406250
9550,-66.406250
9551,-66.406250
9552,-70.312500
9553,-70.312500
9554,-70.312500
9555,-70.312500
9556,-70.312500
9557,-74.218750
9558,-74.218750
9559,-74.218750
9560,-74.218750
9561,-78.125000
9562,-78.125000
9563,-78.125000
9564,-78.125000
9565,-78.125000
9566,-82.031250
9567,-82.031250
9568,-82.031250
9569,-82.031250
9570,-82.031250
9571,-85.937500
9572,-85.937500
9573,-85.937500
9574,-85.937500
9575,-85.937500
9576,-85.937500
9577,-89.843750
9578,-89.843750
9579,-89.843750
9580,-89.843750
9581,-89.843750
9582,-93.750000
9583,-93.750000
9584,-93.750000
9585,-93.750000
9586,-93.750000
9587,-93.750000
9588,-97.656250
9589,-97.656250
9590,-97.656250
9591,-97.656250
9592,-97.656250
9593,-101.562500
9594,-101.562500
9595,-101.562500
9596,-101.562500
9597,-101.562500
9598,-101.562500
9599,-105.468750
9600,-105.468750
9601,-105.468750
9602,-105.468750
9603,-105.468750
9604,-105.468750
9605,-109.375000
9606,-109.375000
9607,-109.375000
9608,-109.375000
9609,-109.375000
9610,-109.375000
9611,-113.281250
9612,-113.281250
9613,-113.281250
9614,-113.281250
9615,-113.281250
9616,-113.281250
9617,-117.187500
9618,-117.187500
9619,-117.187500
9620,-117.187500
9621,-117.187500
9622,-117.187500
9623,-117.187500
9624,-117.187500
9625,-121.093750
9626,-121.093750
9627,-121.093750
9628,-121.093750
9629,-121.093750
9630,-125.000000
9631,-121.093750
9632,-125.000000
9633,-125.000000
9634,-125.000000
9635,-125.000000
9636,-125.000000
9637,-125.000000
9638,-125.000000
9639,-128.906250
9640,-128.906250
9641,-128.906250
9642,-128.906250
9643,-128.906250
9644,-128.906250
9645,-128.906250
9646,-128.906250
9647,-128.906250
9648,-132.812500
9649,-132.812500
9650,-132.812500
9651,-132.812500
9652,-132.812500
9653,-132.812500
9654,-132.812500
9655,-132.812500
9656,-136.718750
9657,-136.718750
9658,-136.718750
9659,-136.718750
9660,-136.718750
9661,-136.718750
9662,-136.718750
9663,-136.718750
9664,-136.718750
9665,-136.718750
9666,-136.718750
9667,-136.718750
9668,-140.625000
9669,-140.625000
9670,-140.625000
9671,-140.625000
9672,-140.625000
9673,-140.625000
9674,-140.625000
9675,-140.625000
9676,-140.625000
9677,-140.625000
9678,-140.625000
9679,-140.625000
9680,-144.531250
9681,-144.531250
9682,-144.531250
9683,-144.531250
9684,-144.531250
9685,-144.531250
9686,-144.531250
9687,-144.531250
9688,-144.531250
9689,-144.531250
9690,-144.531250
9691,-144.531250
9692,-144.531250
9693,-144.531250
9694,-144.531250
9695,-144.531250
9696,-144.531250
9697,-148.437500
9698,-148.437500
9699,-144.531250
9700,-148.437500
9701,-144.531250
9702,-148.437500
9703,-148.437500
9704,-148.437500
9705,-148.437500
9706,-148.437500
9707,-148.437500
9708,-148.437500
9709,-148.437500
9710,-148.437500
9711,-148.437500
9712,-148.437500
9713,-148.437500
9714,-148.437500
9715,-148.437500
9716,-148.437500
9717,-148.437500
9718,-148.437500
9719,-148.437500
9720,-148.437500
9721,-148.437500
9722,-148.437500
9723,-148.437500
9724,-148.437500
9725,-148.437500
9726,-148.437500
9727,-148.437500
9728,-148.437500
9729,-148.437500
9730,-148.437500
9731,-148.437500
9732,-148.437500
9733,-148.437500
9734,-148.437500
9735,-148.437500
9736,-148.437500
9737,-148.437500
9738,-148.437500
9739,-148.437500
9740,-148.437500
9741,-148.437500
9742,-148.437500
9743,-148.437500
9744,-148.437500
9745,-148.437500
9746,-148.437500
9747,-148.437500
9748,-144.531250
9749,-144.531250
9750,-144.531250
9751,-144.531250
9752,-144.531250
9753,-144.531250
9754,-144.531250
9755,-144.531250
9756,-144.531250
9757,-144.531250
9758,-144.531250
9759,-144.531250
9760,-144.531250
9761,-144.531250
9762,-144.531250
9763,-144.531250
9764,-144.531250
9765,-144.531250
9766,-144.531250
9767,-144.531250
9768,-144.531250
9769,-140.625000
9770,-144.531250
9771,-140.625000
9772,-140.625000
9773,-140.625000
9774,-140.625000
9775,-140.625000
9776,-140.625000
9777,-140.625000
9778,-140.625000
9779,-140.625000
9780,-140.625000
9781,-140.625000
9782,-136.718750
9783,-136.718750
9784,-136.718750
9785,-136.718750
9786,-136.718750
9787,-136.718750
9788,-136.718750
9789,-136.718750
9790,-136.718750
9791,-136.718750
9792,-132.812500
9793,-132.812500
9794,-132.812500
9795,-132.812500
9796,-132.812500
9797,-132.812500
9798,-132.812500
9799,-132.812500
9800,-132.812500
9801,-132.812500
9802,-132.812500
9803,-128.906250
9804,-128.906250
9805,-128.906250
9806,-128.906250
9807,-128.906250
9808,-128.906250
9809,-128.906250
9810,-128.906250
9811,-125.000000
9812,-125.000000
9813,-125.000000
9814,-125.000000
9815,-125.000000
9816,-125.000000
9817,-125.000000
9818,-125.000000
9819,-125.000000
9820,-121.093750
9821,-121.093750
9822,-121.093750
9823,-121.093750
9824,-121.093750
9825,-121.093750
9826,-117.187500
9827,-117.187500
9828,-117.187500
9829,-117.187500
9830,-117.187500
9831,-117.187500
9832,-117.187500
9833,-113.281250
9834,-113.281250
9835,-113.281250
9836,-113.281250
9837,-113.281250
9838,-113.281250
9839,-109.375000
9840,-109.375000
9841,-109.375000
9842,-113.281250
9843,-109.375000
9844,-109.375000
9845,-109.375000
9846,-105.468750
9847,-105.468750
9848,-109.375000
9849,-105.468750
9850,-105.468750
9851,-105.468750
9852,-101.562500
9853,-101.562500
9854,-101.562500
9855,-101.562500
9856,-101.562500
9857,-97.656250
9858,-97.656250
9859,-97.656250
9860,-97.656250
9861,-97.656250
9862,-93.750000
9863,-93.750000
9864,-93.750000
9865,-93.750000
9866,-93.750000
9867,-93.750000
9868,-89.843750
9869,-89.843750
9870,-89.843750
9871,-89.843750
9872,-89.843750
9873,-85.937500
9874,-85.937500
9875,-85.937500
9876,-85.937500
9877,-85.937500
9878,-85.937500
9879,-82.031250
9880,-82.031250
9881,-82.031250
9882,-82.031250
9883,-78.125000
9884,-78.125000
9885,-78.125000
9886,-78.125000
9887,-78.125000
9888,-78.125000
9889,-78.125000
9890,-78.125000
9891,-74.218750
9892,-74.218750
9893,-70.312500
9894,-70.312500
9895,-70.312500
9896,-70.312500
9897,-70.312500
9898,-70.312500
9899,-70.312500
9900,-66.406250
9901,-66.406250
9902,-66.406250
9903,-62.500000
9904,-62.500000
9905,-62.500000
9906,-62.500000
9907,-62.500000
9908,-62.500000
9909,-58.593750
9910,-58.593750
9911,-58.593750
9912,-58.593750
9913,-54.687500
9914,-54.687500
9915,-54.687500
9916,-54.687500
9917,-54.687500
9918,-50.781250
9919,-50.781250
9920,-50.781250
9921,-50.781250
9922,-50.781250
9923,-46.875000
9924,-46.875000
9925,-46.875000
9926,-46.875000
9927,-46.875000
9928,-42.968750
9929,-42.968750
9930,-42.968750
9931,-42.968750
9932,-42.968750
9933,-39.062500
9934,-39.062500
9935,-39.062500
9936,-39.062500
9937,-35.156250
9938,-35.156250
9939,-35.156250
9940,-35.156250
9941,-35.156250
9942,-31.250000
9943,-31.250000
9944,-31.250000
9945,-31.250000
9946,-27.343750
9947,-27.343750
9948,-27.343750
9949,-27.343750
9950,-27.343750
9951,-27.343750
9952,-23.437500
9953,-23.437500
9954,-23.437500
9955,-19.531250
9956,-19.531250
9957,-19.531250
9958,-19.531250
9959,-19.531250
9960,-19.531250
9961,-15.625000
9962,-15.625000
9963,-15.625000
9964,-15.625000
9965,-11.718750
9966,-11.718750
9967,-11.718750
9968,-11.718750
9969,-11.718750
9970,-7.812500
9971,-7.812500
9972,-7.812500
9973,-7.812500
9974,-3.906250
9975,-3.906250
9976,-3.906250
9977,-3.906250
9978,-3.906250
9979,0.000000
9980,0.000000
9981,0.000000
9982,0.000000
9983,3.906250
9984,3.906250
9985,3.906250
9986,3.906250
9987,3.906250
9988,3.906250
9989,7.812500
9990,7.812500
9991,7.812500
9992,11.718750
9993,11.718750
9994,11.718750
9995,11.718750
9996,11.718750
9997,11.718750
9998,15.625000
9999,15.625000
10000,15.625000
